File: XRD:XRR/LCO/22168_LCOT/22168_LCOT_002_XRD.csv
#twotheta, yobs, ycal, bkg, diff
42.0,37.4944,1.0,1.0,1.0
42.04,48.5056,1.0,1.0,1.0
42.08,39.4944,1.0,1.0,1.0
42.12,45.4944,1.0,1.0,1.0
42.16,35.4944,1.0,1.0,1.0
42.2,58.0,1.0,1.0,1.0
42.24,61.0111,1.0,1.0,1.0
42.28,41.4944,1.0,1.0,1.0
42.32,50.0,1.0,1.0,1.0
42.36,48.0,1.0,1.0,1.0
42.4,54.0,1.0,1.0,1.0
42.44,32.0,1.0,1.0,1.0
42.48,56.0,1.0,1.0,1.0
42.52,45.0111,1.0,1.0,1.0
42.56,53.4944,1.0,1.0,1.0
42.6,56.9889,1.0,1.0,1.0
42.64,68.0,1.0,1.0,1.0
42.68,54.4944,1.0,1.0,1.0
42.72,54.9889,1.0,1.0,1.0
42.76,65.9889,1.0,1.0,1.0
42.8,72.5056,1.0,1.0,1.0
42.84,58.4944,1.0,1.0,1.0
42.88,77.9778,1.0,1.0,1.0
42.92,76.0111,1.0,1.0,1.0
42.96,60.5056,1.0,1.0,1.0
43.0,70.5056,1.0,1.0,1.0
43.04,77.0,1.0,1.0,1.0
43.08,58.0111,1.0,1.0,1.0
43.12,59.0,1.0,1.0,1.0
43.16,59.5056,1.0,1.0,1.0
43.2,65.0111,1.0,1.0,1.0
43.24,91.5056,1.0,1.0,1.0
43.28,111.5056,1.0,1.0,1.0
43.32,87.5056,1.0,1.0,1.0
43.36,81.4944,1.0,1.0,1.0
43.4,67.0111,1.0,1.0,1.0
43.44,61.9889,1.0,1.0,1.0
43.48,57.5167,1.0,1.0,1.0
43.52,78.5056,1.0,1.0,1.0
43.56,94.4833,1.0,1.0,1.0
43.6,119.5056,1.0,1.0,1.0
43.64,143.0111,1.0,1.0,1.0
43.68,101.4833,1.0,1.0,1.0
43.72,88.5056,1.0,1.0,1.0
43.76,64.0,1.0,1.0,1.0
43.8,90.0222,1.0,1.0,1.0
43.84,80.5056,1.0,1.0,1.0
43.88,113.0111,1.0,1.0,1.0
43.92,181.0222,1.0,1.0,1.0
43.96,192.0222,1.0,1.0,1.0
44.0,163.0111,1.0,1.0,1.0
44.04,132.5167,1.0,1.0,1.0
44.08,113.0,1.0,1.0,1.0
44.12,89.0,1.0,1.0,1.0
44.16,104.0111,1.0,1.0,1.0
44.2,155.9778,1.0,1.0,1.0
44.24,198.9778,1.0,1.0,1.0
44.28,256.4722,1.0,1.0,1.0
44.32,240.55,1.0,1.0,1.0
44.36,171.9889,1.0,1.0,1.0
44.4,98.4944,1.0,1.0,1.0
44.44,80.0,1.0,1.0,1.0
44.48,92.4833,1.0,1.0,1.0
44.52,174.4944,1.0,1.0,1.0
44.56,225.0,1.0,1.0,1.0
44.6,310.0111,1.0,1.0,1.0
44.64,293.5167,1.0,1.0,1.0
44.68,279.9889,1.0,1.0,1.0
44.72,171.4833,1.0,1.0,1.0
44.76,106.4944,1.0,1.0,1.0
44.8,124.0,1.0,1.0,1.0
44.84,224.0,1.0,1.0,1.0
44.88,314.0,1.0,1.0,1.0
44.92,415.9778,1.0,1.0,1.0
44.96,390.5278,1.0,1.0,1.0
45.0,378.0222,1.0,1.0,1.0
45.04,262.4944,1.0,1.0,1.0
45.08,160.9778,1.0,1.0,1.0
45.12,189.4833,1.0,1.0,1.0
45.16,297.4833,1.0,1.0,1.0
45.2,562.4944,1.0,1.0,1.0
45.24,851.4944,1.0,1.0,1.0
45.28,885.4944,1.0,1.0,1.0
45.32,829.9667,1.0,1.0,1.0
45.36,534.55,1.0,1.0,1.0
45.4,277.5389,1.0,1.0,1.0
45.44,243.4944,1.0,1.0,1.0
45.48,341.4722,1.0,1.0,1.0
45.52,779.4944,1.0,1.0,1.0
45.56,1426.03,1.0,1.0,1.0
45.6,1813.03,1.0,1.0,1.0
45.64,1920.04,1.0,1.0,1.0
45.68,1696.1,1.0,1.0,1.0
45.72,1076.58,1.0,1.0,1.0
45.76,510.5167,1.0,1.0,1.0
45.8,300.4722,1.0,1.0,1.0
45.84,685.4611,1.0,1.0,1.0
45.88,1727.91,1.0,1.0,1.0
45.92,2862.08,1.0,1.0,1.0
45.96,3690.54,1.0,1.0,1.0
46.0,3890.54,1.0,1.0,1.0
46.04,3257.561,1.0,1.0,1.0
46.08,2083.45,1.0,1.0,1.0
46.12,1105.49,1.0,1.0,1.0
46.16,1171.41,1.0,1.0,1.0
46.2,2826.84,1.0,1.0,1.0
46.24,6630.37,1.0,1.0,1.0
46.28,12288.7,1.0,1.0,1.0
46.32,22226.7,1.0,1.0,1.0
46.36,84734.6,1.0,1.0,1.0
46.4,220740,1.0,1.0,1.0
46.44,650498,1.0,1.0,1.0
46.48,55496560.0,1.0,1.0,1.0
46.52,3447292.0,1.0,1.0,1.0
46.56,624617,1.0,1.0,1.0
46.6,349569.25,1.0,1.0,1.0
46.64,245234,1.0,1.0,1.0
46.68,196698,1.0,1.0,1.0
46.72,160026,1.0,1.0,1.0
46.76,125803,1.0,1.0,1.0
46.8,93112.6,1.0,1.0,1.0
46.84,63318.9,1.0,1.0,1.0
46.88,38311.6,1.0,1.0,1.0
46.92,19985.2,1.0,1.0,1.0
46.96,8690.78,1.0,1.0,1.0
47.0,3595.16,1.0,1.0,1.0
47.04,2831.46,1.0,1.0,1.0
47.08,4321.48,1.0,1.0,1.0
47.12,6004.94,1.0,1.0,1.0
47.16,6734.97,1.0,1.0,1.0
47.2,6315.14,1.0,1.0,1.0
47.24,4689.65,1.0,1.0,1.0
47.28,2818.49,1.0,1.0,1.0
47.32,1411.54,1.0,1.0,1.0
47.36,784.0111,1.0,1.0,1.0
47.4,1078.98,1.0,1.0,1.0
47.44,1820.42,1.0,1.0,1.0
47.48,2523.41,1.0,1.0,1.0
47.52,2976.59,1.0,1.0,1.0
47.56,2624.02,1.0,1.0,1.0
47.6,2152.59,1.0,1.0,1.0
47.64,1385.0,1.0,1.0,1.0
47.68,720.0555,1.0,1.0,1.0
47.72,418.0111,1.0,1.0,1.0
47.76,524.0,1.0,1.0,1.0
47.8,748.9778,1.0,1.0,1.0
47.84,1062.97,1.0,1.0,1.0
47.88,1199.96,1.0,1.0,1.0
47.92,1077.48,1.0,1.0,1.0
47.96,877.5278,1.0,1.0,1.0
48.0,580.9889,1.0,1.0,1.0
48.04,354.5167,1.0,1.0,1.0
48.08,221.0111,1.0,1.0,1.0
48.12,265.0333,1.0,1.0,1.0
48.16,389.4944,1.0,1.0,1.0
48.2,463.9778,1.0,1.0,1.0
48.24,488.0333,1.0,1.0,1.0
48.28,444.4944,1.0,1.0,1.0
48.32,319.4722,1.0,1.0,1.0
48.36,206.4722,1.0,1.0,1.0
48.4,181.0333,1.0,1.0,1.0
48.44,137.4833,1.0,1.0,1.0
48.48,135.5056,1.0,1.0,1.0
48.52,234.4944,1.0,1.0,1.0
48.56,248.4722,1.0,1.0,1.0
48.6,215.4944,1.0,1.0,1.0
48.64,188.0,1.0,1.0,1.0
48.68,180.4833,1.0,1.0,1.0
48.72,101.5056,1.0,1.0,1.0
48.76,91.5167,1.0,1.0,1.0
48.8,117.0111,1.0,1.0,1.0
48.84,138.0,1.0,1.0,1.0
48.88,148.4944,1.0,1.0,1.0
48.92,166.9889,1.0,1.0,1.0
48.96,137.0111,1.0,1.0,1.0
49.0,128.5167,1.0,1.0,1.0
49.04,101.4833,1.0,1.0,1.0
49.08,64.5056,1.0,1.0,1.0
49.12,101.5167,1.0,1.0,1.0
49.16,88.0,1.0,1.0,1.0
49.2,108.0,1.0,1.0,1.0
49.24,92.0,1.0,1.0,1.0
49.28,77.0111,1.0,1.0,1.0
49.32,72.4944,1.0,1.0,1.0
49.36,97.4944,1.0,1.0,1.0
49.4,85.0,1.0,1.0,1.0
49.44,70.4944,1.0,1.0,1.0
49.48,62.0111,1.0,1.0,1.0
49.52,85.0,1.0,1.0,1.0
49.56,67.4944,1.0,1.0,1.0
49.6,68.9889,1.0,1.0,1.0
49.64,85.0,1.0,1.0,1.0
49.68,67.5167,1.0,1.0,1.0
49.72,61.4944,1.0,1.0,1.0
49.76,41.5056,1.0,1.0,1.0
49.8,36.0111,1.0,1.0,1.0
49.84,45.4944,1.0,1.0,1.0
49.88,49.0111,1.0,1.0,1.0
49.92,62.0,1.0,1.0,1.0
49.96,38.9889,1.0,1.0,1.0
50.0,45.0,1.0,1.0,1.0
50.04,61.9889,1.0,1.0,1.0
50.08,52.0,1.0,1.0,1.0
50.12,25.4944,1.0,1.0,1.0
50.16,39.5056,1.0,1.0,1.0
50.2,45.0222,1.0,1.0,1.0
50.24,47.5056,1.0,1.0,1.0
50.28,44.0,1.0,1.0,1.0
50.32,34.5056,1.0,1.0,1.0
50.36,34.5056,1.0,1.0,1.0
50.4,39.5056,1.0,1.0,1.0
50.44,47.0111,1.0,1.0,1.0
50.48,38.5167,1.0,1.0,1.0
50.52,33.0,1.0,1.0,1.0
50.56,21.0,1.0,1.0,1.0
50.6,21.4944,1.0,1.0,1.0
50.64,26.0,1.0,1.0,1.0
50.68,38.0,1.0,1.0,1.0
50.72,30.0,1.0,1.0,1.0
50.76,31.5056,1.0,1.0,1.0
50.8,39.9889,1.0,1.0,1.0
50.84,17.5056,1.0,1.0,1.0
50.88,24.0,1.0,1.0,1.0
50.92,31.4944,1.0,1.0,1.0
50.96,35.0111,1.0,1.0,1.0
51.0,28.0,1.0,1.0,1.0
51.04,31.9889,1.0,1.0,1.0
51.08,32.9889,1.0,1.0,1.0
51.12,28.0,1.0,1.0,1.0
51.16,23.0,1.0,1.0,1.0
51.2,24.4944,1.0,1.0,1.0
51.24,19.0,1.0,1.0,1.0
51.28,29.0,1.0,1.0,1.0
51.32,38.0,1.0,1.0,1.0
51.36,8.4944,1.0,1.0,1.0
51.4,31.0,1.0,1.0,1.0
51.44,22.9778,1.0,1.0,1.0
51.48,18.4944,1.0,1.0,1.0
51.52,30.5056,1.0,1.0,1.0
51.56,35.5056,1.0,1.0,1.0
51.6,30.0,1.0,1.0,1.0
51.64,18.0,1.0,1.0,1.0
51.68,34.0,1.0,1.0,1.0
51.72,25.0,1.0,1.0,1.0
51.76,11.0,1.0,1.0,1.0
51.8,24.0,1.0,1.0,1.0
51.84,30.9889,1.0,1.0,1.0
51.88,14.0111,1.0,1.0,1.0
51.92,21.9889,1.0,1.0,1.0
51.96,28.0,1.0,1.0,1.0
52.0,17.0,1.0,1.0,1.0