File: XRD:XRR/LCO/22151a_LCOT/22151a_LCOT_XRD.csv
#twotheta, yobs, ycal, bkg, diff
42.0,11.0,1.0,1.0,1.0
42.05,17.0,1.0,1.0,1.0
42.1,12.5056,1.0,1.0,1.0
42.15,12.0,1.0,1.0,1.0
42.2,15.0,1.0,1.0,1.0
42.25,9.5056,1.0,1.0,1.0
42.3,13.0,1.0,1.0,1.0
42.35,22.0,1.0,1.0,1.0
42.4,13.0,1.0,1.0,1.0
42.45,13.0,1.0,1.0,1.0
42.5,4.0,1.0,1.0,1.0
42.55,11.0,1.0,1.0,1.0
42.6,26.0,1.0,1.0,1.0
42.65,15.0,1.0,1.0,1.0
42.7,12.4944,1.0,1.0,1.0
42.75,15.0,1.0,1.0,1.0
42.8,15.0,1.0,1.0,1.0
42.85,6.5056,1.0,1.0,1.0
42.9,17.0,1.0,1.0,1.0
42.95,12.0111,1.0,1.0,1.0
43.0,7.0,1.0,1.0,1.0
43.05,13.0,1.0,1.0,1.0
43.1,17.0,1.0,1.0,1.0
43.15,14.0,1.0,1.0,1.0
43.2,4.0,1.0,1.0,1.0
43.25,25.0,1.0,1.0,1.0
43.3,15.5056,1.0,1.0,1.0
43.35,20.0,1.0,1.0,1.0
43.4,17.0,1.0,1.0,1.0
43.45,11.0,1.0,1.0,1.0
43.5,9.0,1.0,1.0,1.0
43.55,23.5056,1.0,1.0,1.0
43.6,14.4944,1.0,1.0,1.0
43.65,22.0111,1.0,1.0,1.0
43.7,29.5056,1.0,1.0,1.0
43.75,31.4944,1.0,1.0,1.0
43.8,40.0,1.0,1.0,1.0
43.85,31.0,1.0,1.0,1.0
43.9,23.0,1.0,1.0,1.0
43.95,22.5056,1.0,1.0,1.0
44.0,43.4944,1.0,1.0,1.0
44.05,43.0,1.0,1.0,1.0
44.1,54.5167,1.0,1.0,1.0
44.15,45.9889,1.0,1.0,1.0
44.2,43.0,1.0,1.0,1.0
44.25,74.0111,1.0,1.0,1.0
44.3,85.0,1.0,1.0,1.0
44.35,63.9889,1.0,1.0,1.0
44.4,66.0,1.0,1.0,1.0
44.45,72.5056,1.0,1.0,1.0
44.5,76.0111,1.0,1.0,1.0
44.55,85.4944,1.0,1.0,1.0
44.6,94.5167,1.0,1.0,1.0
44.65,106.4944,1.0,1.0,1.0
44.7,128.0111,1.0,1.0,1.0
44.75,122.0111,1.0,1.0,1.0
44.8,125.0,1.0,1.0,1.0
44.85,136.4944,1.0,1.0,1.0
44.9,135.0111,1.0,1.0,1.0
44.95,146.0111,1.0,1.0,1.0
45.0,157.0,1.0,1.0,1.0
45.05,213.9778,1.0,1.0,1.0
45.1,172.4944,1.0,1.0,1.0
45.15,212.5278,1.0,1.0,1.0
45.2,250.0333,1.0,1.0,1.0
45.25,237.9778,1.0,1.0,1.0
45.3,267.4833,1.0,1.0,1.0
45.35,325.4944,1.0,1.0,1.0
45.4,322.4833,1.0,1.0,1.0
45.45,329.0333,1.0,1.0,1.0
45.5,428.4944,1.0,1.0,1.0
45.55,433.0333,1.0,1.0,1.0
45.6,465.5278,1.0,1.0,1.0
45.65,543.4722,1.0,1.0,1.0
45.7,595.0,1.0,1.0,1.0
45.75,625.9667,1.0,1.0,1.0
45.8,746.0667,1.0,1.0,1.0
45.85,897.5278,1.0,1.0,1.0
45.9,1074.51,1.0,1.0,1.0
45.95,1137.49,1.0,1.0,1.0
46.0,1434.03,1.0,1.0,1.0
46.05,1785.52,1.0,1.0,1.0
46.1,2304.02,1.0,1.0,1.0
46.15,2919.48,1.0,1.0,1.0
46.2,3991.0,1.0,1.0,1.0
46.25,5529.99,1.0,1.0,1.0
46.3,9036.28,1.0,1.0,1.0
46.35,18092.5,1.0,1.0,1.0
46.4,68382.4,1.0,1.0,1.0
46.45,920524,1.0,1.0,1.0
46.5,15342462.0,1.0,1.0,1.0
46.55,197262,1.0,1.0,1.0
46.6,26383,1.0,1.0,1.0
46.65,10167.3,1.0,1.0,1.0
46.7,5690.02,1.0,1.0,1.0
46.75,3675.03,1.0,1.0,1.0
46.8,2532.96,1.0,1.0,1.0
46.85,1954.48,1.0,1.0,1.0
46.9,1426.07,1.0,1.0,1.0
46.95,1061.06,1.0,1.0,1.0
47.0,934.4944,1.0,1.0,1.0
47.05,785.4722,1.0,1.0,1.0
47.1,600.4944,1.0,1.0,1.0
47.15,567.0111,1.0,1.0,1.0
47.2,459.5389,1.0,1.0,1.0
47.25,428.5056,1.0,1.0,1.0
47.3,365.0111,1.0,1.0,1.0
47.35,333.9889,1.0,1.0,1.0
47.4,351.5167,1.0,1.0,1.0
47.45,288.5167,1.0,1.0,1.0
47.5,281.0,1.0,1.0,1.0
47.55,218.9667,1.0,1.0,1.0
47.6,251.0333,1.0,1.0,1.0
47.65,202.5389,1.0,1.0,1.0
47.7,193.5056,1.0,1.0,1.0
47.75,240.5167,1.0,1.0,1.0
47.8,180.0111,1.0,1.0,1.0
47.85,152.9889,1.0,1.0,1.0
47.9,186.0111,1.0,1.0,1.0
47.95,180.4944,1.0,1.0,1.0
48.0,181.0,1.0,1.0,1.0
48.05,175.5056,1.0,1.0,1.0
48.1,149.0,1.0,1.0,1.0
48.15,153.0111,1.0,1.0,1.0
48.2,103.0111,1.0,1.0,1.0
48.25,144.4833,1.0,1.0,1.0
48.3,135.4944,1.0,1.0,1.0
48.35,118.0222,1.0,1.0,1.0
48.4,121.0,1.0,1.0,1.0
48.45,105.0,1.0,1.0,1.0
48.5,100.9778,1.0,1.0,1.0
48.55,124.5056,1.0,1.0,1.0
48.6,117.4833,1.0,1.0,1.0
48.65,110.5167,1.0,1.0,1.0
48.7,137.5056,1.0,1.0,1.0
48.75,100.5056,1.0,1.0,1.0
48.8,82.9889,1.0,1.0,1.0
48.85,84.0,1.0,1.0,1.0
48.9,85.5056,1.0,1.0,1.0
48.95,80.5167,1.0,1.0,1.0
49.0,65.4944,1.0,1.0,1.0
49.05,69.4944,1.0,1.0,1.0
49.1,55.0222,1.0,1.0,1.0
49.15,68.0111,1.0,1.0,1.0
49.2,67.4944,1.0,1.0,1.0
49.25,60.4944,1.0,1.0,1.0
49.3,69.0,1.0,1.0,1.0
49.35,60.0,1.0,1.0,1.0
49.4,50.4944,1.0,1.0,1.0
49.45,33.5167,1.0,1.0,1.0
49.5,36.9889,1.0,1.0,1.0
49.55,40.9889,1.0,1.0,1.0
49.6,43.5056,1.0,1.0,1.0
49.65,32.0,1.0,1.0,1.0
49.7,39.5056,1.0,1.0,1.0
49.75,34.0,1.0,1.0,1.0
49.8,27.4944,1.0,1.0,1.0
49.85,39.5056,1.0,1.0,1.0
49.9,41.5056,1.0,1.0,1.0
49.95,29.9889,1.0,1.0,1.0
50.0,30.4944,1.0,1.0,1.0
50.05,31.4944,1.0,1.0,1.0
50.1,14.0,1.0,1.0,1.0
50.15,20.4944,1.0,1.0,1.0
50.2,9.0,1.0,1.0,1.0
50.25,22.0,1.0,1.0,1.0
50.3,14.0,1.0,1.0,1.0
50.35,13.0,1.0,1.0,1.0
50.4,14.4944,1.0,1.0,1.0
50.45,17.0,1.0,1.0,1.0
50.5,9.0,1.0,1.0,1.0
50.55,9.0,1.0,1.0,1.0
50.6,4.0,1.0,1.0,1.0
50.65,5.0,1.0,1.0,1.0
50.7,10.4944,1.0,1.0,1.0
50.75,15.0,1.0,1.0,1.0
50.8,10.4944,1.0,1.0,1.0
50.85,6.0,1.0,1.0,1.0
50.9,12.0,1.0,1.0,1.0
50.95,7.0,1.0,1.0,1.0
51.0,4.0,1.0,1.0,1.0
51.05,9.0,1.0,1.0,1.0
51.1,5.0,1.0,1.0,1.0
51.15,12.5056,1.0,1.0,1.0
51.2,10.0,1.0,1.0,1.0
51.25,4.5056,1.0,1.0,1.0
51.3,8.0,1.0,1.0,1.0
51.35,7.0,1.0,1.0,1.0
51.4,15.0,1.0,1.0,1.0
51.45,9.0,1.0,1.0,1.0
51.5,13.4944,1.0,1.0,1.0
51.55,2.0,1.0,1.0,1.0
51.6,5.0,1.0,1.0,1.0
51.65,11.5056,1.0,1.0,1.0
51.7,2.0,1.0,1.0,1.0
51.75,6.0,1.0,1.0,1.0
51.8,1.0,1.0,1.0,1.0
51.85,8.0,1.0,1.0,1.0
51.9,6.0,1.0,1.0,1.0
51.95,10.0,1.0,1.0,1.0
52.0,8.0,1.0,1.0,1.0
0.44,164474.0,1.0,1.0,1.0
0.49,178799.5,1.0,1.0,1.0
0.54,179984.0,1.0,1.0,1.0
0.59,168452,1.0,1.0,1.0
0.64,144165.5,1.0,1.0,1.0
0.69,105621,1.0,1.0,1.0
0.74,59637.5,1.0,1.0,1.0
0.79,35449,1.0,1.0,1.0
0.84,24998.0,1.0,1.0,1.0
0.89,19375.5,1.0,1.0,1.0
0.94,15383.5,1.0,1.0,1.0
0.99,12649.998,1.0,1.0,1.0
1.04,10509.998,1.0,1.0,1.0
1.09,8917.501,1.0,1.0,1.0
1.14,7781.5,1.0,1.0,1.0
1.19,6954.501,1.0,1.0,1.0
1.24,5938.5,1.0,1.0,1.0
1.29,5599.5,1.0,1.0,1.0
1.34,4792.001,1.0,1.0,1.0
1.39,4360.0,1.0,1.0,1.0
1.44,3851.999,1.0,1.0,1.0
1.49,3608,1.0,1.0,1.0
1.54,3219.5,1.0,1.0,1.0
1.59,2924.5,1.0,1.0,1.0
1.64,2712.5,1.0,1.0,1.0
1.69,2402.5,1.0,1.0,1.0
1.74,2268.5,1.0,1.0,1.0
1.79,2071.5,1.0,1.0,1.0
1.84,1833,1.0,1.0,1.0
1.89,1726.5,1.0,1.0,1.0
1.94,1567.5,1.0,1.0,1.0
1.99,1513.5,1.0,1.0,1.0
2.04,1380.0,1.0,1.0,1.0
2.09,1290.5,1.0,1.0,1.0
2.14,1047.5,1.0,1.0,1.0
2.19,1114,1.0,1.0,1.0
2.24,1012.5,1.0,1.0,1.0
2.29,941.9997,1.0,1.0,1.0
2.34,913.4998,1.0,1.0,1.0
2.39,879.5002,1.0,1.0,1.0
2.44,820.5001,1.0,1.0,1.0
2.49,781.5002,1.0,1.0,1.0
2.54,767.4999,1.0,1.0,1.0
2.59,757.5001,1.0,1.0,1.0
2.64,642.4998,1.0,1.0,1.0
2.69,653.5001,1.0,1.0,1.0
2.74,660.5002,1.0,1.0,1.0
2.79,573.5002,1.0,1.0,1.0
2.84,591.0004,1.0,1.0,1.0
2.89,536.4998,1.0,1.0,1.0
2.94,579.4998,1.0,1.0,1.0
2.99,482.5003,1.0,1.0,1.0
3.04,547.4999,1.0,1.0,1.0
3.09,518.5002,1.0,1.0,1.0
3.14,522.0003,1.0,1.0,1.0
3.19,488.5003,1.0,1.0,1.0
3.24,505.0004,1.0,1.0,1.0
3.29,530.4998,1.0,1.0,1.0
3.34,501.9994,1.0,1.0,1.0
3.39,486.4997,1.0,1.0,1.0
3.44,520.0004,1.0,1.0,1.0
3.49,525.4998,1.0,1.0,1.0
3.54,535.5002,1.0,1.0,1.0
3.59,531.5001,1.0,1.0,1.0
3.64,493.0002,1.0,1.0,1.0
3.69,485.4997,1.0,1.0,1.0
3.74,470.9999,1.0,1.0,1.0
3.79,489.9997,1.0,1.0,1.0
3.84,493.9999,1.0,1.0,1.0
3.89,437.0,1.0,1.0,1.0
3.94,511.4994,1.0,1.0,1.0
3.99,539.9997,1.0,1.0,1.0
4.04,510.0001,1.0,1.0,1.0
4.09,534.4995,1.0,1.0,1.0
4.14,530.5002,1.0,1.0,1.0
4.19,489.4994,1.0,1.0,1.0
4.24,532.5002,1.0,1.0,1.0
4.29,515.4998,1.0,1.0,1.0
4.34,480.9999,1.0,1.0,1.0
4.39,523.4998,1.0,1.0,1.0
4.44,529.9997,1.0,1.0,1.0
4.49,536.9996,1.0,1.0,1.0
4.5,519.5005,1.0,1.0,1.0