File: XRD:XRR/LCO/22151a_LCOT/22151a_LCOT_XRD_2-Theta_Omega.asc
*TYPE		=  Raw
*CLASS		=  ASCII CLASS
*SAMPLE		=
*COMMENT	=
*FNAME		=  22151a_LCOT_XRD_2-Theta_Omega.asc
*DATE		=  15-Oct-22 00:12

*GROUP_COUNT	=  1
*GONIO		=  SmartLab(In-plane), 0.000000
*ATTACHMENT	=  Z-Phi Stage
*ASC		=  0, 0, 0.000000, 0.000000
*I_MONOCHRO	=  Ge(220)x2, 0.000000
*FILTER		=  None
*C_MONOCHRO	=  None, 0.000000
*SLIT_NAME	=  0, Incident slit
*SLIT_NAME	=  1, Receiving slit # 1
*SLIT_NAME	=  2, Receiving slit # 2
*COUNTER	=  D/teX Ultra 250, 0
*POS_FORMAT	=  0
*SCAN_AXIS	=  2Theta/Omega
*MEAS_MODE	=  Continuous Scanning
*TARGET		=  29
*XRAY_CHAR	=  K-ALPHA1
*WAVE_LENGTH1	=  1.54059
*WAVE_LENGTH2	=  1.54441
*THICKNESS	=  0, 0.000000
*MU		=  0, 0.000000
*SCAN_MODE	=  2Theta/Omega
*SPEED_DIM	=  sec./step
*XUNIT		=  deg.
*YUNIT		=  counts
*SCALE_MODE	=  1
*REP_COUNT	=  0
*SE_COUNT	=  0
*STD_MATERIAL	=  Unknown, Unknown, 0.000000, 0.000000, 0.000000, 0.000000, 0.000000, 0.000000
*LATT_CONS	=  0, Unknown, Unknown, 0.000000, 0.000000, 0.000000, 0.000000, 0.000000, 0.000000
*SEC_COUNT	=  2
*TSPEC_SIZE	=  0
*EXTRA_SIZE	=  0
*MEMO		=

*BEGIN
*GROUP		=  0
*START		=  42
*STOP		=  52
*STEP		=  0.01
*OFFSET		=  -0.156800
*SPEED		=  22.1803
*SLIT_SPEC	=  0, 0.400mm, 0.4, 0.000000
*SLIT_SPEC	=  1, 0.400mm, 0.4, 0.000000
*SLIT_SPEC	=  2, 0.400mm, 0.4, 0.000000
*KV		=  40
*MA		=  30
*LOW		=  0.000000
*HIGH		=  0.000000
*CTEMPER	=  0, 0.000000
*CTEMPER	=  1, 0.000000
*CTEMPER	=  2, 0.000000
*PAREX		=  0, 0.000000
*PAREX		=  1, 0.000000
*PAREX		=  2, 0.000000
*PAREX		=  3, 0.000000
*PAREX		=  4, 0.000000
*PAREX		=  5, 0.000000
*PAREX		=  6, 0.000000
*PAREX		=  7, 0.000000
*PAREX		=  8, 0.000000
*PAREX		=  9, 0.000000
*PAREX		=  10, 0.000000
*PAREX		=  11, 0.000000
*PAREX		=  12, 0.000000
*PAREX		=  13, 0.000000
*PAREX		=  14, 0.000000
*PAREX		=  15, 0.000000
*FULL_SCALE	=  1535601.4
*INDEX		=  0, 0, 0
*COUNT		=  1001
11, 10, 3, 6
13, 17, 13, 17.9889
16.5056, 21.4944, 12.5056, 10.5056
11, 17.4944, 17.5056, 12
16.4944, 6.50555, 10, 7
15, 11, 20, 16.9889
8.50555, 9.50555, 22, 21
9.49445, 14.5056, 13, 17
5.49445, 16.5056, 11, 22
11, 9, 9, 8
13, 18, 7, 10
4, 13, 16, 7
5.98889, 18.0111, 4, 12
1, 4, 11, 11
12, 18, 6, 8
26, 3, 16.4944, 9.50555
13, 15, 3.49445, 16.5056
3, 17, 12.4944, 12.5056
15, 12, 7, 15
10, 3.49445, 10, 24.5056
15, 3, 3, 4
8.49445, 6.50555, 16, 4
15.4944, 11.5056, 17, 8.49445
16, 14.5056, 7.98889, 12.0111
16, 6, 9, 17
7, 4, 9, 8
22, 13, 19, 2
19, 14, 17, 19.4944
11.5056, 2.49445, 10.5056, 14
17, 17, 11, 14
4, 4, 14, 12
13, 25, 9, 20
12, 22.4944, 15.5056, 5
21, 11.4944, 12.5056, 20
12, 15, 8, 16
17, 16, 24, 19.4944
16.5056, 11, 28, 20
13.4944, 16.5056, 9, 15
20, 13, 12.4944, 23.5056
4, 23, 8, 13
14.4944, 23, 17.5056, 25
11.9889, 22.0111, 17.4944, 32.5056
12, 21.9889, 29.5056, 25
27.5056, 24, 24, 31.4944
32.5056, 28.4944, 26.5056, 31
40, 41.4944, 13.5056, 29
30, 31, 28, 25
46, 24, 23, 26.4944
39.5056, 27.4833, 40.0111, 22.5056
41.4944, 42.4944, 33.0111, 25
43.4944, 41.5056, 33.4944, 42.5056
29, 43, 46.4944, 46
43.9889, 40, 54.5167, 48
50, 57, 46, 45.9889
37.0111, 40.4944, 56.5056, 59
43, 59, 43.4944, 55.5056
51.9778, 74.0111, 65.5056, 60
60, 79, 85, 68.4944
64.0111, 89.9889, 83.5056, 63.9889
66.5056, 84.4944, 67, 72.0111
66, 64.5056, 66.4944, 73
78.4944, 72.5056, 72, 68.5056
101.494, 95.4944, 76.0111, 103.472
89.5278, 80.9889, 83.5056, 85.4944
122, 89, 83, 70.4944
94.5167, 129.483, 121.011, 109
109.494, 106.494, 109.011, 113.978
126.506, 125.506, 128.011, 108
124.494, 132.483, 99.0111, 122.011
113.494, 137, 123, 113.506
125, 136.494, 144.989, 154.011
161.989, 136.494, 166.011, 151.494
159.011, 171.483, 135.011, 170.989
164.022, 167.494, 182.483, 146.011
170, 166.011, 177.494, 176.494
157, 182.517, 163.461, 179.011
203.011, 213.978, 207.011, 194.989
188.022, 194.989, 172.494, 181
211.517, 188.506, 216.978, 212.528
191.989, 237.506, 214, 239.956
250.033, 243.494, 236.022, 228.472
267.517, 237.978, 235.011, 265.494
256.011, 264, 267.483, 286.011
255.506, 283.506, 302.494, 325.494
311.494, 315.022, 340.472, 313.517
322.483, 341.011, 340.483, 331.494
354.494, 329.033, 379.978, 376.989
387.011, 380.989, 428.494, 364.528
455, 427.45, 445.011, 433.033
470, 449, 456.989, 508.978
465.528, 512.461, 516.033, 524.967
575.528, 543.472, 576.011, 598.956
580.044, 574.022, 595, 614.989
633.011, 696.978, 649.517, 625.967
657.494, 735.517, 714.506, 762.944
746.067, 778.494, 850.956, 920.989
890, 897.528, 891.978, 989.472
966.55, 1039.48, 1074.51, 1048.99
1112.49, 1122.48, 1183.51, 1137.49
1221.49, 1335.48, 1357.49, 1385.99
1434.03, 1512.49, 1601.49, 1643.44
1750.99, 1785.52, 1875.46, 1984.56
2031.9, 2071.53, 2304.02, 2315.94
2515.55, 2567.46, 2726.01, 2919.48
3078.92, 3231.97, 3467.03, 3780.41
3991, 4244.45, 4558.46, 4979.53
5258.84, 5529.99, 6138.98, 6835.82
7467.07, 8371.98, 9036.28, 10271.3
11675.5, 13517.8, 15157.7, 18092.5
22083.1, 27686.5, 36259, 49382.8
68382.4, 95697.9, 143459, 230660
410591, 920524, 4102734, 16124457
26104628, 26466720, 15342462, 5875746
1851899.1, 578028, 325128, 197262
119458, 73034.7, 48382.5, 34832.4
26383, 20459, 16636.7, 13852.3
11754.1, 10167.3, 9025.18, 8015.34
6906.75, 6198.52, 5690.02, 5260.03
4684.59, 4358, 4084.61, 3675.03
3395.01, 3097.59, 2877.48, 2613
2532.96, 2425.59, 2262.55, 2170.71
2012.79, 1954.48, 1794.42, 1592.1
1537.99, 1531.03, 1426.07, 1389.46
1323.46, 1276.02, 1203, 1061.06
1079.48, 1051.02, 1066.51, 935.483
934.494, 862.506, 849.967, 786.044
847.506, 785.472, 721.539, 685.022
688.506, 682.461, 600.494, 631.056
668.483, 599.494, 622.506, 567.011
562.483, 563.022, 553.011, 530.45
459.539, 493.494, 463.011, 456.967
432.528, 428.506, 427.483, 400.506
393.022, 397.989, 365.011, 412.472
374.506, 370.506, 357.506, 333.989
348.506, 353.494, 344.528, 350.483
351.517, 317, 291.494, 341.472
324.517, 288.517, 266.483, 280.539
257.472, 300.506, 281, 273.494
274.989, 226.517, 283.011, 218.967
250.528, 208, 215.989, 213.494
251.033, 221.472, 245.517, 213.989
243.472, 202.539, 226.967, 233.011
193.011, 201, 193.506, 198.494
236.494, 209.978, 196.022, 240.517
199.483, 172.517, 185.978, 226.011
180.011, 219.989, 189.506, 156.989
183.517, 152.989, 180.517, 183.494
183.483, 157, 186.011, 195.494
196.506, 195.483, 187.506, 180.494
172.011, 131.011, 139, 163.989
181, 158.011, 155.506, 145.494
159.989, 175.506, 161.506, 124.989
146.989, 136.022, 149, 161
138.494, 131, 131.494, 153.011
169.483, 157.506, 144.506, 125.494
103.011, 136.011, 89.9778, 140.011
149.506, 144.483, 144, 99.4944
138.517, 125.989, 135.494, 129
128.022, 155.494, 156.989, 118.022
104.494, 108.494, 120.494, 134.011
121, 99.9889, 117.011, 144
121.494, 105, 103.494, 114.506
106.989, 119.022, 100.978, 135.506
82.5056, 105.506, 111.989, 124.506
91.9889, 95.0222, 116.494, 83.5056
117.483, 95.0111, 113.989, 91.5056
101.494, 110.517, 99, 111.989
95, 78.4833, 137.506, 73.5056
95.0111, 110, 87.4722, 100.506
101.528, 93.9889, 89.5056, 87.5056
82.9889, 66, 91, 73
86.5056, 84, 77, 94.9778
83.0111, 96.0111, 85.5056, 65
59.9778, 81.0111, 86.4944, 80.5167
76.9778, 67.0222, 91.4944, 78
65.4944, 91.0111, 61.4944, 56
79, 69.4944, 76.0111, 61
79.4833, 49.4944, 55.0222, 58.9889
70.5056, 77.5056, 64.9889, 68.0111
68, 62, 61.9889, 75.0111
67.4944, 48.4944, 214, 57.0111
63, 60.4944, 65.9889, 55.5056
60.0111, 63.4944, 69, 54.5056
53, 61.4833, 57.5167, 60
48.4833, 20.5056, 38.4944, 33.5167
50.4944, 54.9889, 68.5167, 45
40.9778, 33.5167, 60.5056, 46
60, 35, 36.9889, 53.0111
38, 39.9889, 41.0111, 40.9889
38.4944, 55.4944, 45.0222, 40.9889
43.5056, 34, 43.5056, 40
37, 32, 28, 37
15.4944, 26, 39.5056, 33
27, 36, 16, 34
34, 27, 18.4944, 27.5056
27.4944, 29, 36.4944, 14.0111
26.4944, 39.5056, 36.4944, 21.5056
31, 21.4944, 41.5056, 30
31.4944, 18.5056, 17, 29.9889
22.0111, 24.9889, 17.0111, 15
30.4944, 30, 15.5056, 25
21, 31.4944, 18, 27.5056
12.4944, 27.5056, 14, 6
6, 18, 28, 20.4944
23.4944, 20.0111, 18, 14
9, 27.4944, 27.5056, 12
20, 22, 21, 11
9, 16, 14, 10
14.4944, 15.5056, 18, 13
13, 17.4944, 7.50555, 12
14.4944, 7.50555, 15.9889, 13.0111
20, 17, 10.4944, 21.5056
16, 18, 9, 12
15, 13.4944, 11.5056, 9
6, 13, 2, 6
4, 4.49445, 23.5056, 10
6.49445, 5, 10.5056, 10
5, 3, 10.4944, 12.5056
3, 6.49445, 21.5056, 15
7, 3, 10, 8
10.4944, 8, 10, 14.5056
7, 6, 13, 6
14, 11, 12, 11.4944
3.50555, 3, 4, 7
4, 9, 9, 4
4, 6.49445, 6, 0.505554
6.49445, 9, 13.5056, 6.49445
5.50555, 6, 5, 8
6, 12, 5.49445, 12.5056
5, 13, 9, 15
10, 4, 6, 8
6.49445, 4.50555, 6.49445, 5.50555
7, 5, 8, 3
3, 9, 7, 7
4, 4, 9, 5
15, 10, 8, 3
9, 9, 7, 3
5.49445, 6.50555, 13.4944, 16.5056
5, 3, 4, 2
5, 8, 7, 6
5, 8, 11, 5
5.49445, 11.5056, 11, 2
0.000000, 9, 2, 4
11, 7, 9, 6
0.000000, 6, 10, 5
1, 9, 6, 11
4, 8, 9, 9
3, 7, 6, 4
9, 9, 3, 10
12, 6, 5.49445, 4.50555
8
*END

*BEGIN
*GROUP		=  0
*START		=  0.4
*STOP		=  4.5
*STEP		=  0.01
*OFFSET		=  -0.156800
*SPEED		=  20.6484
*SLIT_SPEC	=  0, 1.000mm, 1, 0.000000
*SLIT_SPEC	=  1, 1.000mm, 1, 0.000000
*SLIT_SPEC	=  2, 1.000mm, 1, 0.000000
*KV		=  40
*MA		=  30
*LOW		=  0.000000
*HIGH		=  0.000000
*CTEMPER	=  0, 0.000000
*CTEMPER	=  1, 0.000000
*CTEMPER	=  2, 0.000000
*PAREX		=  0, 0.000000
*PAREX		=  1, 0.000000
*PAREX		=  2, 0.000000
*PAREX		=  3, 0.000000
*PAREX		=  4, 0.000000
*PAREX		=  5, 0.000000
*PAREX		=  6, 0.000000
*PAREX		=  7, 0.000000
*PAREX		=  8, 0.000000
*PAREX		=  9, 0.000000
*PAREX		=  10, 0.000000
*PAREX		=  11, 0.000000
*PAREX		=  12, 0.000000
*PAREX		=  13, 0.000000
*PAREX		=  14, 0.000000
*PAREX		=  15, 0.000000
*FULL_SCALE	=  10960.7
*INDEX		=  0, 0, 0
*COUNT		=  411
152814, 155963, 158516, 161848
164474, 167524, 170948, 174481
176944, 178800, 180766, 180786
180874, 182075, 179984, 177882
176465, 174102, 171655, 168452
163574, 159983, 155148, 149778
144166, 137775, 130583, 123449
114532, 105621, 97091, 87724
77341, 68155.5, 59637.5, 52751.5
47149, 42528.5, 38831, 35449
32974.5, 30541, 28725.5, 26814
24998, 23730.5, 22589.5, 21323
20461, 19375.5, 18249, 17627.5
16871, 16201.5, 15383.5, 14735.5
13919, 13772.5, 12813, 12650
12237, 11688.5, 11430.5, 11072
10510, 10202.5, 9901.5, 9583
9149, 8917.5, 8916, 8468
8364, 8124, 7781.5, 7657.5
7311.5, 7365, 6977, 6954.5
6541, 6625.5, 6392.5, 6208
5938.5, 5968.5, 5678.5, 5563.5
5539.5, 5599.5, 5144.5, 5164
5054.5, 5040.5, 4792, 4634
4634.5, 4492, 4440, 4360
4256.5, 4105.5, 4064.5, 4063
3852, 3819.5, 3734, 3724.5
3593, 3608, 3525.5, 3466.5
3387, 3318.5, 3219.5, 3129
3044.5, 3129.5, 2938, 2924.5
2840, 2875.5, 2786.5, 2682
2712.5, 2713.5, 2688, 2630.5
2457.5, 2402.5, 2383.5, 2367.5
2316, 2253.5, 2268.5, 2201.5
2133.5, 2093, 2183.5, 2071.5
2055.5, 1916.5, 1942.5, 1894
1833, 1920.5, 1858, 1855.5
1738.5, 1726.5, 1767.5, 1701
1632.5, 1641, 1567.5, 1569.5
1566, 1562.5, 1487.5, 1513.5
1499, 1483, 1418.5, 1381
1380, 1299, 1309.5, 1250
1232, 1290.5, 1307.5, 1255.5
1236, 1253, 1047.5, 1181
1202.5, 1133.5, 1129.5, 1114
1123.5, 1037.5, 1081, 1025
1012.5, 986, 1077.5, 1007
949, 942, 978.5, 928
908, 925.501, 913.5, 911
844, 893.499, 873.001, 879.5
791.5, 815, 841, 807
820.5, 803, 851, 797.5
759, 781.5, 793, 684
773, 714, 767.5, 735
731.5, 700.5, 683.5, 757.5
748.5, 708.5, 636.5, 663
642.5, 593.5, 718.001, 716
611, 653.5, 671.5, 617
638.5, 627, 660.5, 591
612, 584.5, 609.5, 573.5
600, 573, 625, 553
591, 540.5, 619.5, 601.5
599, 536.5, 529.5, 544
523.5, 577.5, 579.5, 552
575, 507.5, 548, 482.5
473.5, 525, 521.5, 539.5
547.5, 516.5, 519.5, 518.5
467, 518.5, 557, 502.5
465.5, 491, 522, 472.5
493, 500, 461.5, 488.5
507, 487.5, 494.5, 483.999
505, 496.5, 516.5, 517.5
515, 530.5, 489.501, 519.999
454.5, 442, 501.999, 525.5
483, 504.5, 521.5, 486.5
505.5, 478, 513, 506
520, 457, 528.5, 471
482, 525.5, 518.5, 425
441, 491.5, 535.5, 459.5
537, 489.5, 492.5, 531.5
506.5, 488.5, 472.5, 542
493, 461, 483.5, 494.5
455, 485.5, 467, 491.5
474.499, 506.5, 471, 511
500.5, 506.5, 528, 490
524.5, 502, 473, 462
494, 515.5, 496, 546.5
500, 437, 478, 479
540, 502.5, 511.499, 525.5
551.5, 540, 479.5, 540
500, 497.5, 538.5, 530
510, 510.5, 522.5, 540.5
516.5, 534.5, 520.5, 525
469, 520, 530.5, 499.5
521, 541.5, 483.5, 489.499
505.501, 535, 510.5, 563.5
532.5, 564.5, 500.5, 496.5
539, 515.5, 523, 536.5
475.5, 517.5, 481, 510.5
535.5, 523.5, 573.5, 523.5
581.5, 537, 560, 530
530, 556, 512.5, 537.999
538.001, 537, 519.5
*END

*EOF