File: XRD:XRR/LCO/22125_LCOT/22125_LCOT_XRD_002_2-Theta_Omega.asc
*TYPE		=  Raw
*CLASS		=  ASCII CLASS
*SAMPLE		=
*COMMENT	=
*FNAME		=  22125_LCOT_XRD_002_2-Theta_Omega.asc
*DATE		=  19-Aug-22 00:22

*GROUP_COUNT	=  1
*GONIO		=  SmartLab(In-plane), 0.000000
*ATTACHMENT	=  Z-Phi Stage
*ASC		=  0, 0, 0.000000, 0.000000
*I_MONOCHRO	=  Ge(220)x2, 0.000000
*FILTER		=  None
*C_MONOCHRO	=  None, 0.000000
*SLIT_NAME	=  0, Incident slit
*SLIT_NAME	=  1, Receiving slit # 1
*SLIT_NAME	=  2, Receiving slit # 2
*COUNTER	=  D/teX Ultra 250, 0
*POS_FORMAT	=  0
*SCAN_AXIS	=  2Theta/Omega
*MEAS_MODE	=  Continuous Scanning
*TARGET		=  29
*XRAY_CHAR	=  K-ALPHA1
*WAVE_LENGTH1	=  1.54059
*WAVE_LENGTH2	=  1.54441
*THICKNESS	=  0, 0.000000
*MU		=  0, 0.000000
*SCAN_MODE	=  2Theta/Omega
*SPEED_DIM	=  sec./step
*XUNIT		=  deg.
*YUNIT		=  counts
*SCALE_MODE	=  1
*REP_COUNT	=  0
*SE_COUNT	=  0
*STD_MATERIAL	=  Unknown, Unknown, 0.000000, 0.000000, 0.000000, 0.000000, 0.000000, 0.000000
*LATT_CONS	=  0, Unknown, Unknown, 0.000000, 0.000000, 0.000000, 0.000000, 0.000000, 0.000000
*SEC_COUNT	=  1
*TSPEC_SIZE	=  0
*EXTRA_SIZE	=  0
*MEMO		=

*BEGIN
*GROUP		=  0
*START		=  42
*STOP		=  52
*STEP		=  0.01
*OFFSET		=  -0.197200
*SPEED		=  23.9588
*SLIT_SPEC	=  0, 0.400mm, 0.4, 0.000000
*SLIT_SPEC	=  1, 0.400mm, 0.4, 0.000000
*SLIT_SPEC	=  2, 0.400mm, 0.4, 0.000000
*KV		=  40
*MA		=  30
*LOW		=  0.000000
*HIGH		=  0.000000
*CTEMPER	=  0, 0.000000
*CTEMPER	=  1, 0.000000
*CTEMPER	=  2, 0.000000
*PAREX		=  0, 0.000000
*PAREX		=  1, 0.000000
*PAREX		=  2, 0.000000
*PAREX		=  3, 0.000000
*PAREX		=  4, 0.000000
*PAREX		=  5, 0.000000
*PAREX		=  6, 0.000000
*PAREX		=  7, 0.000000
*PAREX		=  8, 0.000000
*PAREX		=  9, 0.000000
*PAREX		=  10, 0.000000
*PAREX		=  11, 0.000000
*PAREX		=  12, 0.000000
*PAREX		=  13, 0.000000
*PAREX		=  14, 0.000000
*PAREX		=  15, 0.000000
*FULL_SCALE	=  1536948.1
*INDEX		=  0, 0, 0
*COUNT		=  1001
6.49445, 5.50555, 6, 7
18, 11, 19, 16
8, 13, 9, 15.4944
10.5056, 14, 4, 6
13, 12, 5, 12
16, 15, 9, 20
14.4944, 9.50555, 15, 7
7, 5, 23, 14
13, 17, 21, 8
13, 22, 17.4944, 8.50555
7, 19, 16, 13.4944
20.5056, 7.49445, 10.5056, 13
17, 13, 9, 11.4944
13.5056, 9, 19, 11
22, 17, 20, 23
15, 19, 25.9889, 26.0111
26, 23, 20, 11
13, 17.9889, 22.0111, 9
15, 13, 10, 20.4944
19.5056, 17, 26, 14.4944
12.5056, 12, 7, 11.9889
32.0111, 12, 24, 18
26, 24, 12.4944, 23.5056
25.4944, 19.5056, 24.4944, 20.5056
29, 37, 23, 24.4944
16.5056, 19, 19.4944, 10.5056
18.4944, 20.5056, 18, 25.9889
15.0111, 14, 13.4944, 15.5056
12, 14.4944, 16.4944, 16.0111
23.4944, 30, 28.5056, 13.4944
39, 29.5056, 19, 24.9889
18.0111, 27, 34.4944, 50
42.4944, 30.5056, 46.4944, 30.4944
43.5167, 19, 30.4944, 26.5056
30, 22.4944, 27.5056, 23.9889
12, 27.5056, 17.5056, 14
14, 22, 10, 37
26.4944, 20.5056, 24, 25.9889
42.5056, 26.5056, 21, 44.4944
23, 27.5056, 40, 27.9889
39.0111, 26, 36.4944, 32.5056
30.4944, 24.5056, 36.4944, 31.5056
25.4944, 34.4944, 46.5056, 17.4944
27, 25.0111, 33.4944, 15.5056
12, 28.4944, 17.5056, 12
25.4944, 31.5056, 24.4944, 40.5056
35.4944, 48, 44.5056, 42.4722
39.5278, 35.4944, 50.5056, 54
52.4944, 62, 63, 55.5056
44.4944, 65, 28.5056, 43.4944
27.5056, 29, 41.4944, 39.5056
23, 27, 17, 43.4944
28.9889, 18.5167, 42, 27.4944
44.9889, 40, 51.0111, 52.4944
49.5056, 43.5056, 46.9889, 56
46.5056, 59, 36.9889, 76.5167
61.4833, 64.5167, 66, 53.4833
81.5056, 52, 45.0111, 52
48, 52.4944, 61.4944, 55.0111
43.9889, 23.5056, 26.5056, 43
26, 30, 42.4944, 36
30.9889, 29.0111, 60, 21
68.5056, 79.4833, 58.0111, 62.4944
58.0111, 81.9889, 101.506, 82.9889
86.0111, 96.4944, 113.483, 93.5167
78, 97.4944, 76.5056, 91.0111
56.4944, 79, 58.5056, 68.9889
38.4944, 40.5167, 39.9889, 33.0111
38, 33.4944, 38.5056, 38
38.4944, 47, 42.4944, 52.5056
77.4944, 85.0111, 69.4944, 73.4944
102.011, 96.4833, 133.517, 138.989
151.494, 105.506, 133.011, 117
130.989, 125.494, 129.011, 136.989
122.011, 113.989, 83.5056, 73.9889
73.5167, 70, 53.5056, 26.4944
41.5056, 51.4944, 39.4944, 50.0111
48, 48.4944, 87.4944, 110.494
102.506, 124.011, 104.483, 151
154, 170.989, 183, 207.517
202.978, 203.011, 228.483, 220.528
226.494, 189.506, 213.989, 204.011
228.472, 158.517, 163, 112.011
119.506, 95.4944, 78.4944, 84.0111
78, 42.5056, 34, 41
58.4944, 86.5056, 90, 81.9889
171, 163.989, 192.011, 180.483
206, 259, 288.506, 323.989
366.011, 341.461, 363.539, 383.989
363.472, 361.033, 391.989, 350.978
338.033, 312.506, 274.483, 285.506
219, 186.011, 143.506, 128.506
98.5056, 67, 51, 81.5056
59.9889, 110.989, 124.011, 135
198.483, 206.494, 275.506, 361.494
409.989, 460.494, 547.989, 566.517
652.967, 670.494, 742.494, 749.022
813.472, 809.528, 821.461, 826.978
786.044, 794.989, 695, 636.494
562.55, 476.011, 385.472, 350.539
274.517, 166.483, 158, 110.528
87, 74.9778, 127.517, 144.978
231, 383.978, 479.494, 684.439
890.033, 1081.98, 1307.94, 1572.48
1880, 2128.89, 2435.94, 2698.03
2986.49, 3135.45, 3408.97, 3469.02
3557.51, 3686.96, 3691.08, 3683.93
3676.45, 3508.54, 3450.06, 3274.51
3182.02, 3124.99, 3213.48, 3699.37
4243.53, 5773.74, 8670.44, 13763.4
24167.3, 46460, 89136.3, 153905
239049, 362950, 558309, 934192
2177202.8, 11674201, 23417966, 26401126
8433496, 1183785.6, 447899, 241519
150298, 92706.5, 57999.1, 40711.1
33603.9, 30986.7, 30556.3, 30999.8
33716.8, 36366.3, 39692.7, 43728.1
47510.9, 51890.4, 56056.3, 61405.1
64817.3, 69216.1, 72994.2, 77420.5
81144.1, 84948.3, 87979.9, 90558.9
93339.8, 95107.4, 96317.2, 98176.1
98300.1, 98198.6, 98539.3, 97699.1
96252.6, 94025.1, 91693.8, 89901.2
86770.9, 82759.1, 79860, 75812.7
71016.6, 67089.9, 62757.7, 58531.1
53655.4, 49256.4, 44365, 40283.7
36166.8, 31720.4, 28229.8, 23998
21199.7, 17988.8, 14928.5, 12179.7
9993.2, 7916.12, 6340.33, 4780.16
3601.04, 2423.09, 1706.59, 1129.03
736.033, 510.539, 455.978, 442.506
544.506, 799.461, 1053.41, 1305.06
1690.89, 1951.96, 2108.55, 2432.92
2523.49, 2819.91, 2913.03, 2918.54
2915.45, 2887.52, 2891.07, 2754.49
2529.52, 2429.02, 2206.59, 1957.92
1742.07, 1515, 1300.04, 1054.53
860.517, 704.539, 506.483, 377.022
281.528, 201.483, 189.011, 138
164.517, 161.483, 227.506, 269.989
312, 407.461, 470.506, 529.022
633.45, 677.517, 786.483, 854.989
869.011, 866.472, 834.517, 845.989
848, 829.033, 750.978, 707.067
614.506, 635.45, 499.561, 481.494
396.989, 340.011, 267.011, 203
149.506, 132, 126.494, 88
84.4944, 107, 95, 100.989
128.022, 152.494, 180, 170.494
233, 270.978, 267.011, 317
359.989, 367.967, 344.55, 366.494
352.517, 365.461, 317.506, 355.989
347.011, 308.506, 309.011, 253.022
207.472, 162.022, 165, 137.494
126.978, 108.528, 50.4944, 77.5056
72, 58.5056, 57, 52.5056
69.4833, 73.5056, 87.9889, 96.5167
123.978, 82.0222, 142.989, 134.011
164.978, 142.517, 134.506, 171.483
186.989, 187.033, 153.494, 166.483
172.011, 173.483, 137.517, 133.494
130, 112.506, 112.506, 82
82.4833, 59.0222, 36, 46.4944
51.5056, 52, 43.4833, 31.5167
47, 37, 58.4944, 46.4944
69.4944, 68.5167, 86.4722, 80.5278
92.4944, 108.989, 113.506, 77.4944
93.5167, 96, 97.4833, 117.506
92, 91, 75.4944, 79.0111
80, 69.5056, 56.9889, 59.5056
47.4833, 58, 54.5167, 27
21, 46.5056, 33, 34
18.4944, 32.4944, 28.0111, 36.9889
21.0111, 57.4944, 27, 33.5056
66.4833, 64.9889, 132.022, 49.5056
46.4944, 54, 50.5056, 46.4833
59.5167, 59, 70.4944, 44
46.4944, 71.0111, 41.9889, 30.0111
44.4944, 37.5056, 30, 31
17.4944, 36, 24.5056, 21
20, 19, 22.9889, 16.5056
28, 21, 35.4944, 8.01111
34, 28, 30, 38.9889
29.0111, 45.4944, 28.4944, 38.5056
35.4944, 29.5056, 45.5056, 43
23, 34, 23, 27
23.4944, 21.5056, 20.4944, 15.5056
26.4944, 19.5056, 25.9889, 23.0111
19.4944, 21.5056, 19.4944, 10.5056
15.4944, 26, 22, 23.5056
13, 22.4833, 17.5167, 28.9889
30.0111, 21, 32.9889, 30.0111
26.9889, 23.0111, 15, 33
30, 14, 13.4944, 19
19.5056, 14, 10, 18
18, 15, 12, 16
16, 19, 18, 15
12, 14, 10, 12
21, 11, 13, 10
6.49445, 3.50555, 12.4944, 16
15.5056, 16, 4, 14
14, 7.49445, 6.50555, 11
6, 6.98889, 15.0111, 8
9, 12, 4, 10
13, 6, 8, 13
9, 11, 19, 7
9, 8, 19.4944, 5.50555
13, 6.49445, 9, 20.5056
14, 4, 10.4944, 19
16.5056, 8, 22.4944, 11.5056
10, 10, 7, 8
7, 7, 10, 7
8.49445, 13.5056, 4, 9.49445
16, 7.50555, 18, 5
8, 10, 9.49445, 10.5056
14, 2, 6, 6
2, 10, 7, 6
14.4944, 12.5056, 8, 8
6, 8, 11, 9
6, 0.000000, 9, 7
4, 13, 17, 2
5, 13, 4, 10.4944
10.5056, 10, 7, 7
15, 11, 8, 6
6.49445, 9.50555, 19, 6.48334
6.51666, 2, 6, 8
5, 0.000000, 2, 10
10, 5, 0.000000, 8
9, 8, 8, 5
6, 7, 12, 4
4, 0.000000, 6, 3
0.000000, 9, 4, 6
5, 1.98889, 3.01111, 5
5.49445, 7.50555, 2, 8
6, 2, 0.000000, 3
4, 2, 8, 10
7, 0.000000, 0.000000, 3
4, 4.49445, 8.50555, 10
6, 3, 5, 4
5, 2.49445, 4.50555, 4
8, 7, 4, 2
6, 4, 2, 0.000000
4, 2, 6, 10
6, 6, 5.49445, 9.50555
5, 2, 0.000000, 6
3, 9, 0.000000, 7
0.000000, 4, 4, 10
5, 2, 8, 18
4, 2, 3.98889, 5.01111
3, 2, 10, 8
7
*END

*EOF