File: XRD:XRR/LCO/22125_LCOT/22125_LCOT_XRD_002.csv
#twotheta, yobs, ycal, bkg, diff
42.0,6.4944,1.0,1.0,1.0
42.04,18.0,1.0,1.0,1.0
42.08,8.0,1.0,1.0,1.0
42.12,10.5056,1.0,1.0,1.0
42.16,13.0,1.0,1.0,1.0
42.2,16.0,1.0,1.0,1.0
42.24,14.4944,1.0,1.0,1.0
42.28,7.0,1.0,1.0,1.0
42.32,13.0,1.0,1.0,1.0
42.36,13.0,1.0,1.0,1.0
42.4,7.0,1.0,1.0,1.0
42.44,20.5056,1.0,1.0,1.0
42.48,17.0,1.0,1.0,1.0
42.52,13.5056,1.0,1.0,1.0
42.56,22.0,1.0,1.0,1.0
42.6,15.0,1.0,1.0,1.0
42.64,26.0,1.0,1.0,1.0
42.68,13.0,1.0,1.0,1.0
42.72,15.0,1.0,1.0,1.0
42.76,19.5056,1.0,1.0,1.0
42.8,12.5056,1.0,1.0,1.0
42.84,32.0111,1.0,1.0,1.0
42.88,26.0,1.0,1.0,1.0
42.92,25.4944,1.0,1.0,1.0
42.96,29.0,1.0,1.0,1.0
43.0,16.5056,1.0,1.0,1.0
43.04,18.4944,1.0,1.0,1.0
43.08,15.0111,1.0,1.0,1.0
43.12,12.0,1.0,1.0,1.0
43.16,23.4944,1.0,1.0,1.0
43.2,39.0,1.0,1.0,1.0
43.24,18.0111,1.0,1.0,1.0
43.28,42.4944,1.0,1.0,1.0
43.32,43.5167,1.0,1.0,1.0
43.36,30.0,1.0,1.0,1.0
43.4,12.0,1.0,1.0,1.0
43.44,14.0,1.0,1.0,1.0
43.48,26.4944,1.0,1.0,1.0
43.52,42.5056,1.0,1.0,1.0
43.56,23.0,1.0,1.0,1.0
43.6,39.0111,1.0,1.0,1.0
43.64,30.4944,1.0,1.0,1.0
43.68,25.4944,1.0,1.0,1.0
43.72,27.0,1.0,1.0,1.0
43.76,12.0,1.0,1.0,1.0
43.8,25.4944,1.0,1.0,1.0
43.84,35.4944,1.0,1.0,1.0
43.88,39.5278,1.0,1.0,1.0
43.92,52.4944,1.0,1.0,1.0
43.96,44.4944,1.0,1.0,1.0
44.0,27.5056,1.0,1.0,1.0
44.04,23.0,1.0,1.0,1.0
44.08,28.9889,1.0,1.0,1.0
44.12,44.9889,1.0,1.0,1.0
44.16,49.5056,1.0,1.0,1.0
44.2,46.5056,1.0,1.0,1.0
44.24,61.4833,1.0,1.0,1.0
44.28,81.5056,1.0,1.0,1.0
44.32,48.0,1.0,1.0,1.0
44.36,43.9889,1.0,1.0,1.0
44.4,26.0,1.0,1.0,1.0
44.44,30.9889,1.0,1.0,1.0
44.48,68.5056,1.0,1.0,1.0
44.52,58.0111,1.0,1.0,1.0
44.56,86.0111,1.0,1.0,1.0
44.6,78.0,1.0,1.0,1.0
44.64,56.4944,1.0,1.0,1.0
44.68,38.4944,1.0,1.0,1.0
44.72,38.0,1.0,1.0,1.0
44.76,38.4944,1.0,1.0,1.0
44.8,77.4944,1.0,1.0,1.0
44.84,102.0111,1.0,1.0,1.0
44.88,151.4944,1.0,1.0,1.0
44.92,130.9889,1.0,1.0,1.0
44.96,122.0111,1.0,1.0,1.0
45.0,73.5167,1.0,1.0,1.0
45.04,41.5056,1.0,1.0,1.0
45.08,48.0,1.0,1.0,1.0
45.12,102.5056,1.0,1.0,1.0
45.16,154.0,1.0,1.0,1.0
45.2,202.9778,1.0,1.0,1.0
45.24,226.4944,1.0,1.0,1.0
45.28,228.4722,1.0,1.0,1.0
45.32,119.5056,1.0,1.0,1.0
45.36,78.0,1.0,1.0,1.0
45.4,58.4944,1.0,1.0,1.0
45.44,171.0,1.0,1.0,1.0
45.48,206.0,1.0,1.0,1.0
45.52,366.0111,1.0,1.0,1.0
45.56,363.4722,1.0,1.0,1.0
45.6,338.0333,1.0,1.0,1.0
45.64,219.0,1.0,1.0,1.0
45.68,98.5056,1.0,1.0,1.0
45.72,59.9889,1.0,1.0,1.0
45.76,198.4833,1.0,1.0,1.0
45.8,409.9889,1.0,1.0,1.0
45.84,652.9667,1.0,1.0,1.0
45.88,813.4722,1.0,1.0,1.0
45.92,786.0444,1.0,1.0,1.0
45.96,562.55,1.0,1.0,1.0
46.0,274.5167,1.0,1.0,1.0
46.04,87.0,1.0,1.0,1.0
46.08,231.0,1.0,1.0,1.0
46.12,890.0333,1.0,1.0,1.0
46.16,1880.0,1.0,1.0,1.0
46.2,2986.49,1.0,1.0,1.0
46.24,3557.51,1.0,1.0,1.0
46.28,3676.45,1.0,1.0,1.0
46.32,3182.02,1.0,1.0,1.0
46.36,4243.53,1.0,1.0,1.0
46.4,24167.3,1.0,1.0,1.0
46.44,239049,1.0,1.0,1.0
46.48,2177202.75,1.0,1.0,1.0
46.52,8433496.0,1.0,1.0,1.0
46.56,150298,1.0,1.0,1.0
46.6,33603.9,1.0,1.0,1.0
46.64,33716.8,1.0,1.0,1.0
46.68,47510.9,1.0,1.0,1.0
46.72,64817.3,1.0,1.0,1.0
46.76,81144.1,1.0,1.0,1.0
46.8,93339.8,1.0,1.0,1.0
46.84,98300.1,1.0,1.0,1.0
46.88,96252.6,1.0,1.0,1.0
46.92,86770.9,1.0,1.0,1.0
46.96,71016.6,1.0,1.0,1.0
47.0,53655.4,1.0,1.0,1.0
47.04,36166.8,1.0,1.0,1.0
47.08,21199.7,1.0,1.0,1.0
47.12,9993.2,1.0,1.0,1.0
47.16,3601.04,1.0,1.0,1.0
47.2,736.0333,1.0,1.0,1.0
47.24,544.5056,1.0,1.0,1.0
47.28,1690.89,1.0,1.0,1.0
47.32,2523.49,1.0,1.0,1.0
47.36,2915.45,1.0,1.0,1.0
47.4,2529.52,1.0,1.0,1.0
47.44,1742.07,1.0,1.0,1.0
47.48,860.5167,1.0,1.0,1.0
47.52,281.5278,1.0,1.0,1.0
47.56,164.5167,1.0,1.0,1.0
47.6,312.0,1.0,1.0,1.0
47.64,633.45,1.0,1.0,1.0
47.68,869.0111,1.0,1.0,1.0
47.72,848.0,1.0,1.0,1.0
47.76,614.5056,1.0,1.0,1.0
47.8,396.9889,1.0,1.0,1.0
47.84,149.5056,1.0,1.0,1.0
47.88,84.4944,1.0,1.0,1.0
47.92,128.0222,1.0,1.0,1.0
47.96,233.0,1.0,1.0,1.0
48.0,359.9889,1.0,1.0,1.0
48.04,352.5167,1.0,1.0,1.0
48.08,347.0111,1.0,1.0,1.0
48.12,207.4722,1.0,1.0,1.0
48.16,126.9778,1.0,1.0,1.0
48.2,72.0,1.0,1.0,1.0
48.24,69.4833,1.0,1.0,1.0
48.28,123.9778,1.0,1.0,1.0
48.32,164.9778,1.0,1.0,1.0
48.36,186.9889,1.0,1.0,1.0
48.4,172.0111,1.0,1.0,1.0
48.44,130.0,1.0,1.0,1.0
48.48,82.4833,1.0,1.0,1.0
48.52,51.5056,1.0,1.0,1.0
48.56,47.0,1.0,1.0,1.0
48.6,69.4944,1.0,1.0,1.0
48.64,92.4944,1.0,1.0,1.0
48.68,93.5167,1.0,1.0,1.0
48.72,92.0,1.0,1.0,1.0
48.76,80.0,1.0,1.0,1.0
48.8,47.4833,1.0,1.0,1.0
48.84,21.0,1.0,1.0,1.0
48.88,18.4944,1.0,1.0,1.0
48.92,21.0111,1.0,1.0,1.0
48.96,66.4833,1.0,1.0,1.0
49.0,46.4944,1.0,1.0,1.0
49.04,59.5167,1.0,1.0,1.0
49.08,46.4944,1.0,1.0,1.0
49.12,44.4944,1.0,1.0,1.0
49.16,17.4944,1.0,1.0,1.0
49.2,20.0,1.0,1.0,1.0
49.24,28.0,1.0,1.0,1.0
49.28,34.0,1.0,1.0,1.0
49.32,29.0111,1.0,1.0,1.0
49.36,35.4944,1.0,1.0,1.0
49.4,23.0,1.0,1.0,1.0
49.44,23.4944,1.0,1.0,1.0
49.48,26.4944,1.0,1.0,1.0
49.52,19.4944,1.0,1.0,1.0
49.56,15.4944,1.0,1.0,1.0
49.6,13.0,1.0,1.0,1.0
49.64,30.0111,1.0,1.0,1.0
49.68,26.9889,1.0,1.0,1.0
49.72,30.0,1.0,1.0,1.0
49.76,19.5056,1.0,1.0,1.0
49.8,18.0,1.0,1.0,1.0
49.84,16.0,1.0,1.0,1.0
49.88,12.0,1.0,1.0,1.0
49.92,21.0,1.0,1.0,1.0
49.96,6.4944,1.0,1.0,1.0
50.0,15.5056,1.0,1.0,1.0
50.04,14.0,1.0,1.0,1.0
50.08,6.0,1.0,1.0,1.0
50.12,9.0,1.0,1.0,1.0
50.16,13.0,1.0,1.0,1.0
50.2,9.0,1.0,1.0,1.0
50.24,9.0,1.0,1.0,1.0
50.28,13.0,1.0,1.0,1.0
50.32,14.0,1.0,1.0,1.0
50.36,16.5056,1.0,1.0,1.0
50.4,10.0,1.0,1.0,1.0
50.44,7.0,1.0,1.0,1.0
50.48,8.4944,1.0,1.0,1.0
50.52,16.0,1.0,1.0,1.0
50.56,8.0,1.0,1.0,1.0
50.6,14.0,1.0,1.0,1.0
50.64,2.0,1.0,1.0,1.0
50.68,14.4944,1.0,1.0,1.0
50.72,6.0,1.0,1.0,1.0
50.76,6.0,1.0,1.0,1.0
50.8,4.0,1.0,1.0,1.0
50.84,5.0,1.0,1.0,1.0
50.88,10.5056,1.0,1.0,1.0
50.92,15.0,1.0,1.0,1.0
50.96,6.4944,1.0,1.0,1.0
51.0,6.5167,1.0,1.0,1.0
51.04,5.0,1.0,1.0,1.0
51.08,10.0,1.0,1.0,1.0
51.12,9.0,1.0,1.0,1.0
51.16,6.0,1.0,1.0,1.0
51.2,4.0,1.0,1.0,1.0
51.24,0.0,1.0,1.0,1.0
51.28,5.0,1.0,1.0,1.0
51.32,5.4944,1.0,1.0,1.0
51.36,6.0,1.0,1.0,1.0
51.4,4.0,1.0,1.0,1.0
51.44,7.0,1.0,1.0,1.0
51.48,4.0,1.0,1.0,1.0
51.52,6.0,1.0,1.0,1.0
51.56,5.0,1.0,1.0,1.0
51.6,8.0,1.0,1.0,1.0
51.64,6.0,1.0,1.0,1.0
51.68,4.0,1.0,1.0,1.0
51.72,6.0,1.0,1.0,1.0
51.76,5.0,1.0,1.0,1.0
51.8,3.0,1.0,1.0,1.0
51.84,0.0,1.0,1.0,1.0
51.88,5.0,1.0,1.0,1.0
51.92,4.0,1.0,1.0,1.0
51.96,3.0,1.0,1.0,1.0
52.0,7.0,1.0,1.0,1.0