File: XRD:XRR/STO/22099_STOL/22099_STOL_annealed_XRD.csv
#twotheta, yobs, ycal, bkg, diff
42.0,0.0,1.0,1.0,1.0
42.04,7.0,1.0,1.0,1.0
42.08,3.4944,1.0,1.0,1.0
42.12,2.0,1.0,1.0,1.0
42.16,4.0,1.0,1.0,1.0
42.2,0.0,1.0,1.0,1.0
42.24,5.0,1.0,1.0,1.0
42.28,2.0,1.0,1.0,1.0
42.32,2.0,1.0,1.0,1.0
42.36,2.0,1.0,1.0,1.0
42.4,0.0,1.0,1.0,1.0
42.44,2.0,1.0,1.0,1.0
42.48,4.0,1.0,1.0,1.0
42.52,2.0,1.0,1.0,1.0
42.56,2.0,1.0,1.0,1.0
42.6,0.0,1.0,1.0,1.0
42.64,0.0,1.0,1.0,1.0
42.68,0.0,1.0,1.0,1.0
42.72,0.0,1.0,1.0,1.0
42.76,6.0,1.0,1.0,1.0
42.8,11.0,1.0,1.0,1.0
42.84,3.0,1.0,1.0,1.0
42.88,0.0,1.0,1.0,1.0
42.92,5.5056,1.0,1.0,1.0
42.96,6.5056,1.0,1.0,1.0
43.0,16.0,1.0,1.0,1.0
43.04,8.4944,1.0,1.0,1.0
43.08,7.0,1.0,1.0,1.0
43.12,6.4944,1.0,1.0,1.0
43.16,8.0,1.0,1.0,1.0
43.2,14.0,1.0,1.0,1.0
43.24,13.4944,1.0,1.0,1.0
43.28,20.5056,1.0,1.0,1.0
43.32,0.0,1.0,1.0,1.0
43.36,31.0,1.0,1.0,1.0
43.4,7.0,1.0,1.0,1.0
43.44,6.0,1.0,1.0,1.0
43.48,11.0,1.0,1.0,1.0
43.52,20.4944,1.0,1.0,1.0
43.56,7.0,1.0,1.0,1.0
43.6,7.0,1.0,1.0,1.0
43.64,2.0,1.0,1.0,1.0
43.68,3.0,1.0,1.0,1.0
43.72,3.0,1.0,1.0,1.0
43.76,4.0,1.0,1.0,1.0
43.8,0.0,1.0,1.0,1.0
43.84,0.0,1.0,1.0,1.0
43.88,9.0,1.0,1.0,1.0
43.92,11.0,1.0,1.0,1.0
43.96,4.0,1.0,1.0,1.0
44.0,14.0,1.0,1.0,1.0
44.04,22.4944,1.0,1.0,1.0
44.08,23.0,1.0,1.0,1.0
44.12,33.4833,1.0,1.0,1.0
44.16,56.5056,1.0,1.0,1.0
44.2,70.0111,1.0,1.0,1.0
44.24,60.5056,1.0,1.0,1.0
44.28,81.5056,1.0,1.0,1.0
44.32,110.0111,1.0,1.0,1.0
44.36,128.0,1.0,1.0,1.0
44.4,141.0222,1.0,1.0,1.0
44.44,172.4944,1.0,1.0,1.0
44.48,206.5056,1.0,1.0,1.0
44.52,198.4944,1.0,1.0,1.0
44.56,223.5056,1.0,1.0,1.0
44.6,283.4944,1.0,1.0,1.0
44.64,291.5056,1.0,1.0,1.0
44.68,290.4722,1.0,1.0,1.0
44.72,328.4833,1.0,1.0,1.0
44.76,389.0,1.0,1.0,1.0
44.8,376.5167,1.0,1.0,1.0
44.84,390.4833,1.0,1.0,1.0
44.88,404.0111,1.0,1.0,1.0
44.92,464.5389,1.0,1.0,1.0
44.96,448.0,1.0,1.0,1.0
45.0,436.4389,1.0,1.0,1.0
45.04,477.0111,1.0,1.0,1.0
45.08,464.9889,1.0,1.0,1.0
45.12,408.9667,1.0,1.0,1.0
45.16,459.4944,1.0,1.0,1.0
45.2,480.5056,1.0,1.0,1.0
45.24,454.0,1.0,1.0,1.0
45.28,469.4722,1.0,1.0,1.0
45.32,441.4833,1.0,1.0,1.0
45.36,415.0,1.0,1.0,1.0
45.4,392.5278,1.0,1.0,1.0
45.44,388.9889,1.0,1.0,1.0
45.48,395.0,1.0,1.0,1.0
45.52,360.5167,1.0,1.0,1.0
45.56,351.0111,1.0,1.0,1.0
45.6,310.0111,1.0,1.0,1.0
45.64,313.0111,1.0,1.0,1.0
45.68,321.0222,1.0,1.0,1.0
45.72,287.0333,1.0,1.0,1.0
45.76,252.4944,1.0,1.0,1.0
45.8,240.9667,1.0,1.0,1.0
45.84,207.4722,1.0,1.0,1.0
45.88,221.4611,1.0,1.0,1.0
45.92,208.9778,1.0,1.0,1.0
45.96,195.0111,1.0,1.0,1.0
46.0,204.0222,1.0,1.0,1.0
46.04,189.5056,1.0,1.0,1.0
46.08,185.0111,1.0,1.0,1.0
46.12,149.5056,1.0,1.0,1.0
46.16,173.0222,1.0,1.0,1.0
46.2,181.5056,1.0,1.0,1.0
46.24,133.9778,1.0,1.0,1.0
46.28,158.5056,1.0,1.0,1.0
46.32,148.5056,1.0,1.0,1.0
46.36,142.0111,1.0,1.0,1.0
46.4,184.9889,1.0,1.0,1.0
46.44,177.0,1.0,1.0,1.0
46.48,165.5056,1.0,1.0,1.0
46.52,159.5056,1.0,1.0,1.0
46.56,162.5167,1.0,1.0,1.0
46.6,127.0,1.0,1.0,1.0
46.64,146.0222,1.0,1.0,1.0
46.68,131.5056,1.0,1.0,1.0
46.72,157.4944,1.0,1.0,1.0
46.76,158.5056,1.0,1.0,1.0
46.8,127.0111,1.0,1.0,1.0
46.84,147.0,1.0,1.0,1.0
46.88,127.4944,1.0,1.0,1.0
46.92,134.5056,1.0,1.0,1.0
46.96,99.0222,1.0,1.0,1.0
47.0,106.5056,1.0,1.0,1.0
47.04,95.0111,1.0,1.0,1.0
47.08,103.4833,1.0,1.0,1.0
47.12,92.5167,1.0,1.0,1.0
47.16,130.0,1.0,1.0,1.0
47.2,125.4944,1.0,1.0,1.0
47.24,113.5056,1.0,1.0,1.0
47.28,112.0,1.0,1.0,1.0
47.32,125.5056,1.0,1.0,1.0
47.36,152.4833,1.0,1.0,1.0
47.4,177.0111,1.0,1.0,1.0
47.44,202.4944,1.0,1.0,1.0
47.48,243.9778,1.0,1.0,1.0
47.52,241.4833,1.0,1.0,1.0
47.56,350.9889,1.0,1.0,1.0
47.6,407.0111,1.0,1.0,1.0
47.64,536.4944,1.0,1.0,1.0
47.68,750.9778,1.0,1.0,1.0
47.72,1104.08,1.0,1.0,1.0
47.76,1655.96,1.0,1.0,1.0
47.8,2852.94,1.0,1.0,1.0
47.84,6420.94,1.0,1.0,1.0
47.88,22876.373,1.0,1.0,1.0
47.92,1301861.0,1.0,1.0,1.0
47.96,4745553.5,1.0,1.0,1.0
48.0,1721180.875,1.0,1.0,1.0
48.04,179673,1.0,1.0,1.0
48.08,19139.7,1.0,1.0,1.0
48.12,5965.13,1.0,1.0,1.0
48.16,2618.1,1.0,1.0,1.0
48.2,1401.55,1.0,1.0,1.0
48.24,874.4944,1.0,1.0,1.0
48.28,555.0222,1.0,1.0,1.0
48.32,372.0111,1.0,1.0,1.0
48.36,315.4722,1.0,1.0,1.0
48.4,186.9889,1.0,1.0,1.0
48.44,198.5167,1.0,1.0,1.0
48.48,172.9889,1.0,1.0,1.0
48.52,114.5056,1.0,1.0,1.0
48.56,123.4833,1.0,1.0,1.0
48.6,110.5167,1.0,1.0,1.0
48.64,90.0,1.0,1.0,1.0
48.68,66.5167,1.0,1.0,1.0
48.72,37.4944,1.0,1.0,1.0
48.76,53.5056,1.0,1.0,1.0
48.8,34.0,1.0,1.0,1.0
48.84,40.0,1.0,1.0,1.0
48.88,49.0,1.0,1.0,1.0
48.92,22.0111,1.0,1.0,1.0
48.96,25.9889,1.0,1.0,1.0
49.0,34.0,1.0,1.0,1.0
49.04,13.5056,1.0,1.0,1.0
49.08,21.0,1.0,1.0,1.0
49.12,20.0,1.0,1.0,1.0
49.16,14.0,1.0,1.0,1.0
49.2,4.0,1.0,1.0,1.0
49.24,16.0,1.0,1.0,1.0
49.28,3.0,1.0,1.0,1.0
49.32,10.0,1.0,1.0,1.0
49.36,7.0,1.0,1.0,1.0
49.4,8.0,1.0,1.0,1.0
49.44,7.0,1.0,1.0,1.0
49.48,2.0,1.0,1.0,1.0
49.52,8.0,1.0,1.0,1.0
49.56,5.4944,1.0,1.0,1.0
49.6,6.4944,1.0,1.0,1.0
49.64,10.0,1.0,1.0,1.0
49.68,5.0,1.0,1.0,1.0
49.72,4.0,1.0,1.0,1.0
49.76,5.0,1.0,1.0,1.0
49.8,4.0,1.0,1.0,1.0
49.84,2.0,1.0,1.0,1.0
49.88,4.0,1.0,1.0,1.0
49.92,0.0,1.0,1.0,1.0
49.96,1.0,1.0,1.0,1.0
50.0,6.0,1.0,1.0,1.0
50.04,4.0,1.0,1.0,1.0
50.08,7.0,1.0,1.0,1.0
50.12,0.0,1.0,1.0,1.0
50.16,6.0,1.0,1.0,1.0
50.2,3.0,1.0,1.0,1.0
50.24,2.0,1.0,1.0,1.0
50.28,2.5056,1.0,1.0,1.0
50.32,5.0,1.0,1.0,1.0
50.36,4.0,1.0,1.0,1.0
50.4,4.0,1.0,1.0,1.0
50.44,0.0,1.0,1.0,1.0
50.48,0.0,1.0,1.0,1.0
50.52,0.0,1.0,1.0,1.0
50.56,2.0,1.0,1.0,1.0
50.6,0.0,1.0,1.0,1.0
50.64,4.0,1.0,1.0,1.0
50.68,0.0,1.0,1.0,1.0
50.72,2.0,1.0,1.0,1.0
50.76,4.5056,1.0,1.0,1.0
50.8,3.5056,1.0,1.0,1.0
50.84,2.0,1.0,1.0,1.0
50.88,4.0,1.0,1.0,1.0
50.92,2.0,1.0,1.0,1.0
50.96,2.0,1.0,1.0,1.0
51.0,4.0,1.0,1.0,1.0
51.04,0.0,1.0,1.0,1.0
51.08,3.0,1.0,1.0,1.0
51.12,4.0,1.0,1.0,1.0
51.16,2.0,1.0,1.0,1.0
51.2,0.0,1.0,1.0,1.0
51.24,4.0,1.0,1.0,1.0
51.28,2.0,1.0,1.0,1.0
51.32,2.0,1.0,1.0,1.0
51.36,0.4944,1.0,1.0,1.0
51.4,2.0,1.0,1.0,1.0
51.44,0.0,1.0,1.0,1.0
51.48,4.0,1.0,1.0,1.0
51.52,0.5056,1.0,1.0,1.0
51.56,0.0,1.0,1.0,1.0
51.6,0.0,1.0,1.0,1.0
51.64,0.0,1.0,1.0,1.0
51.68,1.5056,1.0,1.0,1.0
51.72,0.0,1.0,1.0,1.0
51.76,0.0,1.0,1.0,1.0
51.8,0.0,1.0,1.0,1.0
51.84,4.0,1.0,1.0,1.0
51.88,0.0,1.0,1.0,1.0
51.92,3.0,1.0,1.0,1.0
51.96,0.0,1.0,1.0,1.0
52.0,1.0,1.0,1.0,1.0