File: XRD:XRR/STO/22099_STOL/22098_STOL_XRR_2-Theta_Omega.asc
*TYPE		=  Raw
*CLASS		=  ASCII CLASS
*SAMPLE		=
*COMMENT	=
*FNAME		=  22098_STOL_XRR_2-Theta_Omega.asc
*DATE		=  22-Jun-22 10:45

*GROUP_COUNT	=  1
*GONIO		=  SmartLab(In-plane), 0.000000
*ATTACHMENT	=  Z-Phi Stage
*ASC		=  0, 0, 0.000000, 0.000000
*I_MONOCHRO	=  Ge(220)x2, 0.000000
*FILTER		=  None
*C_MONOCHRO	=  None, 0.000000
*SLIT_NAME	=  0, Incident slit
*SLIT_NAME	=  1, Receiving slit # 1
*SLIT_NAME	=  2, Receiving slit # 2
*COUNTER	=  D/teX Ultra 250, 0
*POS_FORMAT	=  0
*SCAN_AXIS	=  2Theta/Omega
*MEAS_MODE	=  Continuous Scanning
*TARGET		=  29
*XRAY_CHAR	=  K-ALPHA1
*WAVE_LENGTH1	=  1.54059
*WAVE_LENGTH2	=  1.54441
*THICKNESS	=  0, 0.000000
*MU		=  0, 0.000000
*SCAN_MODE	=  2Theta/Omega
*SPEED_DIM	=  sec./step
*XUNIT		=  deg.
*YUNIT		=  counts
*SCALE_MODE	=  1
*REP_COUNT	=  0
*SE_COUNT	=  0
*STD_MATERIAL	=  Unknown, Unknown, 0.000000, 0.000000, 0.000000, 0.000000, 0.000000, 0.000000
*LATT_CONS	=  0, Unknown, Unknown, 0.000000, 0.000000, 0.000000, 0.000000, 0.000000, 0.000000
*SEC_COUNT	=  1
*TSPEC_SIZE	=  0
*EXTRA_SIZE	=  0
*MEMO		=

*BEGIN
*GROUP		=  0
*START		=  0.4
*STOP		=  4.5
*STEP		=  0.01
*OFFSET		=  0.0244
*SPEED		=  5.95853
*SLIT_SPEC	=  0, 1.000mm, 1, 0.000000
*SLIT_SPEC	=  1, 1.000mm, 1, 0.000000
*SLIT_SPEC	=  2, 1.000mm, 1, 0.000000
*KV		=  40
*MA		=  30
*LOW		=  0.000000
*HIGH		=  0.000000
*CTEMPER	=  0, 0.000000
*CTEMPER	=  1, 0.000000
*CTEMPER	=  2, 0.000000
*PAREX		=  0, 0.000000
*PAREX		=  1, 0.000000
*PAREX		=  2, 0.000000
*PAREX		=  3, 0.000000
*PAREX		=  4, 0.000000
*PAREX		=  5, 0.000000
*PAREX		=  6, 0.000000
*PAREX		=  7, 0.000000
*PAREX		=  8, 0.000000
*PAREX		=  9, 0.000000
*PAREX		=  10, 0.000000
*PAREX		=  11, 0.000000
*PAREX		=  12, 0.000000
*PAREX		=  13, 0.000000
*PAREX		=  14, 0.000000
*PAREX		=  15, 0.000000
*FULL_SCALE	=  109577
*INDEX		=  0, 0, 0
*COUNT		=  411
437821, 446253, 454839, 464274
471289, 478766, 486091, 494373
501602, 508691, 514476, 519325
524807, 527930, 528852, 532355
532132, 528837, 524327, 517841
504228, 488049, 470168, 447455
422833, 397234, 369893, 343244
315450, 287440, 260676, 234712
208718, 183978, 159733, 137132
116330, 96200.5, 78684.5, 63836.5
52064, 41934, 34417, 28599.5
24656.5, 21319.5, 18926, 16964
15760, 14619.5, 13953, 13353.5
12816.5, 12532, 12514.5, 12351.5
12298, 12238.5, 12134, 12247
12113, 12427.5, 12317.5, 12022.5
12037, 12295, 11981, 11783
11971.5, 11933.5, 11523.5, 11780.5
11434, 11299, 11289, 11072.5
10935.5, 10710, 10516.5, 10374.5
10158, 9758, 9699, 9486.5
9142, 8870, 8549.5, 8430
8261.5, 7841.5, 7562.5, 7306
6969, 6814.5, 6623, 6469.5
5951.5, 5751, 5585.5, 5416
5154, 4836, 4753, 4518
4170, 3996, 3774, 3745.5
3487, 3349.5, 3122, 2888
2835, 2554.5, 2462, 2311.5
2140, 2047.5, 1972.5, 1796.5
1736, 1545.5, 1528, 1445.5
1302.5, 1246.5, 1176, 1121.5
1073, 1012, 952, 906.5
885.5, 839.5, 834, 794.5
842.5, 745, 711.001, 684
655.5, 663, 705.5, 693.5
648.5, 663.501, 658, 708.5
651.001, 694, 694.5, 687
665, 659.5, 678.5, 709.5
677.5, 732.5, 754.5, 725.5
729.999, 740.5, 812, 815.5
799, 883, 809.499, 789.5
782, 765.5, 796, 840
849, 783.001, 861.5, 854.5
809.5, 826, 785, 811.001
837, 814.5, 789.5, 781.5
823, 808, 778.5, 690
798.5, 782.5, 758.5, 725.5
723, 693, 656, 663.999
701.5, 634, 638, 619
596.5, 598.5, 554.5, 582
583.5, 558, 438, 482
470.5, 441.5, 433, 394.5
426.5, 376, 395, 330.5
320, 331.5, 338.5, 313
299.5, 302, 280.5, 225
250.5, 245.5, 237, 216
192.5, 213, 191, 179
184, 150, 187.5, 187.5
160, 167, 155.5, 149.5
148, 127.5, 142, 98
112, 127, 138.5, 81.5001
148.5, 118, 118, 114.5
120.5, 112, 122.5, 130.5
162, 136, 132, 112.5
130, 134.5, 150.5, 140.5
141.5, 142.5, 134, 126
141, 146.5, 141, 145
188, 163, 150.5, 138
187, 157.5, 142.5, 160.5
164, 189.5, 197, 170.5
201.5, 175, 185, 186
190.5, 212.5, 191.5, 194.5
179, 184, 206.5, 183.5
182.5, 190.5, 215.5, 193.5
185, 188.5, 150, 181
194, 164.5, 164, 200
168, 168.5, 163.5, 159.5
131, 137.5, 126.5, 176
140.5, 134.5, 134, 148.5
145.5, 133, 131.5, 151.5
111, 117, 101.5, 99.0001
142, 125, 114.5, 108
88, 116, 62.0002, 86
83.9999, 87.9999, 90.4999, 107.5
88.0001, 86.9999, 79, 80.0001
82.9999, 73.4999, 83.0001, 94.5001
58.9999, 80.5001, 59, 64
89, 68.5001, 79, 55.4998
57.0001, 47, 45.5001, 74
57, 84.4999, 74, 80
54.5001, 65.9999, 48.5001, 57.9999
96, 66, 76.0001, 38.4999
74, 74, 59.4999, 73.5002
69.4999, 59.5001, 55.4998, 62.0001
78, 67, 96, 78.4999
70, 73.5001, 85.9999, 96
106, 77, 78.4998, 81.5001
90.5002, 62, 93.9999, 86.0001
85.9999, 92.9999, 96.0001, 99.4999
94, 98.5001, 100.5, 86.0001
96.4999, 99, 98, 97
91, 84.0001, 76.9999
*END

*EOF