File: XRD:XRR/STO/22099_STOL/22099_STOL_XRD.csv
#twotheta, yobs, ycal, bkg, diff
42.0,5.0,1.0,1.0,1.0
42.04,2.0,1.0,1.0,1.0
42.08,5.0,1.0,1.0,1.0
42.12,0.0,1.0,1.0,1.0
42.16,0.0,1.0,1.0,1.0
42.2,4.0,1.0,1.0,1.0
42.24,5.0,1.0,1.0,1.0
42.28,3.0,1.0,1.0,1.0
42.32,2.0,1.0,1.0,1.0
42.36,2.0,1.0,1.0,1.0
42.4,1.0,1.0,1.0,1.0
42.44,5.0,1.0,1.0,1.0
42.48,5.0,1.0,1.0,1.0
42.52,2.4944,1.0,1.0,1.0
42.56,0.0,1.0,1.0,1.0
42.6,5.0,1.0,1.0,1.0
42.64,0.0,1.0,1.0,1.0
42.68,4.0,1.0,1.0,1.0
42.72,3.0,1.0,1.0,1.0
42.76,2.0,1.0,1.0,1.0
42.8,3.0,1.0,1.0,1.0
42.84,2.0,1.0,1.0,1.0
42.88,2.0,1.0,1.0,1.0
42.92,2.0,1.0,1.0,1.0
42.96,2.0,1.0,1.0,1.0
43.0,2.0,1.0,1.0,1.0
43.04,9.5056,1.0,1.0,1.0
43.08,1.5056,1.0,1.0,1.0
43.12,6.5056,1.0,1.0,1.0
43.16,9.0,1.0,1.0,1.0
43.2,9.0,1.0,1.0,1.0
43.24,12.9889,1.0,1.0,1.0
43.28,13.5056,1.0,1.0,1.0
43.32,17.5056,1.0,1.0,1.0
43.36,10.4833,1.0,1.0,1.0
43.4,5.0,1.0,1.0,1.0
43.44,9.0111,1.0,1.0,1.0
43.48,6.0,1.0,1.0,1.0
43.52,7.5056,1.0,1.0,1.0
43.56,14.0,1.0,1.0,1.0
43.6,13.0,1.0,1.0,1.0
43.64,14.0,1.0,1.0,1.0
43.68,5.4944,1.0,1.0,1.0
43.72,3.0,1.0,1.0,1.0
43.76,8.0,1.0,1.0,1.0
43.8,10.0,1.0,1.0,1.0
43.84,0.4944,1.0,1.0,1.0
43.88,12.0111,1.0,1.0,1.0
43.92,6.0,1.0,1.0,1.0
43.96,6.0,1.0,1.0,1.0
44.0,12.4944,1.0,1.0,1.0
44.04,14.0,1.0,1.0,1.0
44.08,29.0,1.0,1.0,1.0
44.12,20.5056,1.0,1.0,1.0
44.16,27.5056,1.0,1.0,1.0
44.2,63.9889,1.0,1.0,1.0
44.24,70.0,1.0,1.0,1.0
44.28,65.5056,1.0,1.0,1.0
44.32,113.4944,1.0,1.0,1.0
44.36,129.5056,1.0,1.0,1.0
44.4,139.0,1.0,1.0,1.0
44.44,187.0,1.0,1.0,1.0
44.48,203.4944,1.0,1.0,1.0
44.52,224.5167,1.0,1.0,1.0
44.56,233.4944,1.0,1.0,1.0
44.6,246.0222,1.0,1.0,1.0
44.64,269.5167,1.0,1.0,1.0
44.68,292.0111,1.0,1.0,1.0
44.72,310.5167,1.0,1.0,1.0
44.76,356.0222,1.0,1.0,1.0
44.8,359.9667,1.0,1.0,1.0
44.84,356.4833,1.0,1.0,1.0
44.88,407.5056,1.0,1.0,1.0
44.92,434.0333,1.0,1.0,1.0
44.96,442.0333,1.0,1.0,1.0
45.0,473.4944,1.0,1.0,1.0
45.04,532.4944,1.0,1.0,1.0
45.08,475.55,1.0,1.0,1.0
45.12,474.9889,1.0,1.0,1.0
45.16,481.0111,1.0,1.0,1.0
45.2,496.4722,1.0,1.0,1.0
45.24,524.5167,1.0,1.0,1.0
45.28,522.4833,1.0,1.0,1.0
45.32,472.4833,1.0,1.0,1.0
45.36,509.4944,1.0,1.0,1.0
45.4,424.5389,1.0,1.0,1.0
45.44,439.5056,1.0,1.0,1.0
45.48,421.0,1.0,1.0,1.0
45.52,387.4944,1.0,1.0,1.0
45.56,452.5278,1.0,1.0,1.0
45.6,367.5278,1.0,1.0,1.0
45.64,334.9778,1.0,1.0,1.0
45.68,363.4944,1.0,1.0,1.0
45.72,312.5278,1.0,1.0,1.0
45.76,295.9889,1.0,1.0,1.0
45.8,265.0,1.0,1.0,1.0
45.84,259.4833,1.0,1.0,1.0
45.88,268.0111,1.0,1.0,1.0
45.92,210.4944,1.0,1.0,1.0
45.96,265.4944,1.0,1.0,1.0
46.0,199.0,1.0,1.0,1.0
46.04,224.0,1.0,1.0,1.0
46.08,197.0,1.0,1.0,1.0
46.12,190.0,1.0,1.0,1.0
46.16,194.5167,1.0,1.0,1.0
46.2,162.5056,1.0,1.0,1.0
46.24,181.5056,1.0,1.0,1.0
46.28,195.0,1.0,1.0,1.0
46.32,168.0,1.0,1.0,1.0
46.36,164.4944,1.0,1.0,1.0
46.4,183.4944,1.0,1.0,1.0
46.44,186.5167,1.0,1.0,1.0
46.48,170.0111,1.0,1.0,1.0
46.52,167.9778,1.0,1.0,1.0
46.56,187.5167,1.0,1.0,1.0
46.6,145.9889,1.0,1.0,1.0
46.64,151.4944,1.0,1.0,1.0
46.68,157.4944,1.0,1.0,1.0
46.72,139.0,1.0,1.0,1.0
46.76,130.0222,1.0,1.0,1.0
46.8,122.0333,1.0,1.0,1.0
46.84,121.4944,1.0,1.0,1.0
46.88,127.9889,1.0,1.0,1.0
46.92,104.4944,1.0,1.0,1.0
46.96,120.4944,1.0,1.0,1.0
47.0,112.0,1.0,1.0,1.0
47.04,121.9889,1.0,1.0,1.0
47.08,87.5056,1.0,1.0,1.0
47.12,127.4944,1.0,1.0,1.0
47.16,131.0111,1.0,1.0,1.0
47.2,110.0111,1.0,1.0,1.0
47.24,116.0,1.0,1.0,1.0
47.28,132.5167,1.0,1.0,1.0
47.32,129.5056,1.0,1.0,1.0
47.36,147.5056,1.0,1.0,1.0
47.4,196.4944,1.0,1.0,1.0
47.44,218.5056,1.0,1.0,1.0
47.48,236.4722,1.0,1.0,1.0
47.52,277.5167,1.0,1.0,1.0
47.56,351.0,1.0,1.0,1.0
47.6,403.0111,1.0,1.0,1.0
47.64,559.5722,1.0,1.0,1.0
47.68,751.0222,1.0,1.0,1.0
47.72,1130.54,1.0,1.0,1.0
47.76,1722.49,1.0,1.0,1.0
47.8,3056.86,1.0,1.0,1.0
47.84,5912.03,1.0,1.0,1.0
47.88,17312.7,1.0,1.0,1.0
47.92,329296,1.0,1.0,1.0
47.96,4129687.0,1.0,1.0,1.0
48.0,5003862.5,1.0,1.0,1.0
48.04,492648,1.0,1.0,1.0
48.08,24179.3,1.0,1.0,1.0
48.12,6707.81,1.0,1.0,1.0
48.16,2904.51,1.0,1.0,1.0
48.2,1516.09,1.0,1.0,1.0
48.24,923.0444,1.0,1.0,1.0
48.28,548.4944,1.0,1.0,1.0
48.32,414.5167,1.0,1.0,1.0
48.36,285.5056,1.0,1.0,1.0
48.4,244.5167,1.0,1.0,1.0
48.44,179.4944,1.0,1.0,1.0
48.48,101.5278,1.0,1.0,1.0
48.52,111.0,1.0,1.0,1.0
48.56,110.0,1.0,1.0,1.0
48.6,93.0,1.0,1.0,1.0
48.64,73.9889,1.0,1.0,1.0
48.68,72.9889,1.0,1.0,1.0
48.72,56.5056,1.0,1.0,1.0
48.76,33.0,1.0,1.0,1.0
48.8,41.5056,1.0,1.0,1.0
48.84,43.0111,1.0,1.0,1.0
48.88,39.0,1.0,1.0,1.0
48.92,29.4944,1.0,1.0,1.0
48.96,21.4944,1.0,1.0,1.0
49.0,32.0,1.0,1.0,1.0
49.04,20.0,1.0,1.0,1.0
49.08,15.5056,1.0,1.0,1.0
49.12,11.4944,1.0,1.0,1.0
49.16,18.0,1.0,1.0,1.0
49.2,7.0,1.0,1.0,1.0
49.24,14.0111,1.0,1.0,1.0
49.28,4.0,1.0,1.0,1.0
49.32,6.0,1.0,1.0,1.0
49.36,6.0,1.0,1.0,1.0
49.4,5.0,1.0,1.0,1.0
49.44,7.5056,1.0,1.0,1.0
49.48,5.5056,1.0,1.0,1.0
49.52,20.5056,1.0,1.0,1.0
49.56,6.0,1.0,1.0,1.0
49.6,9.0,1.0,1.0,1.0
49.64,9.0,1.0,1.0,1.0
49.68,10.0,1.0,1.0,1.0
49.72,7.5056,1.0,1.0,1.0
49.76,5.0,1.0,1.0,1.0
49.8,3.0,1.0,1.0,1.0
49.84,2.0,1.0,1.0,1.0
49.88,2.0,1.0,1.0,1.0
49.92,2.5056,1.0,1.0,1.0
49.96,2.0,1.0,1.0,1.0
50.0,2.4944,1.0,1.0,1.0
50.04,2.0,1.0,1.0,1.0
50.08,9.0,1.0,1.0,1.0
50.12,7.0,1.0,1.0,1.0
50.16,0.5056,1.0,1.0,1.0
50.2,4.0,1.0,1.0,1.0
50.24,5.0111,1.0,1.0,1.0
50.28,0.0,1.0,1.0,1.0
50.32,1.0111,1.0,1.0,1.0
50.36,4.0,1.0,1.0,1.0
50.4,5.0,1.0,1.0,1.0
50.44,0.0,1.0,1.0,1.0
50.48,2.0,1.0,1.0,1.0
50.52,2.0,1.0,1.0,1.0
50.56,0.0,1.0,1.0,1.0
50.6,2.0,1.0,1.0,1.0
50.64,0.0,1.0,1.0,1.0
50.68,5.0,1.0,1.0,1.0
50.72,2.0,1.0,1.0,1.0
50.76,0.0,1.0,1.0,1.0
50.8,3.0,1.0,1.0,1.0
50.84,2.0,1.0,1.0,1.0
50.88,8.0,1.0,1.0,1.0
50.92,0.0,1.0,1.0,1.0
50.96,0.0,1.0,1.0,1.0
51.0,3.0,1.0,1.0,1.0
51.04,6.0,1.0,1.0,1.0
51.08,2.0,1.0,1.0,1.0
51.12,0.0,1.0,1.0,1.0
51.16,5.0,1.0,1.0,1.0
51.2,0.0,1.0,1.0,1.0
51.24,2.0,1.0,1.0,1.0
51.28,0.0,1.0,1.0,1.0
51.32,0.0,1.0,1.0,1.0
51.36,2.0,1.0,1.0,1.0
51.4,2.0,1.0,1.0,1.0
51.44,3.0,1.0,1.0,1.0
51.48,0.0,1.0,1.0,1.0
51.52,0.0,1.0,1.0,1.0
51.56,3.4944,1.0,1.0,1.0
51.6,6.0,1.0,1.0,1.0
51.64,4.0,1.0,1.0,1.0
51.68,2.0,1.0,1.0,1.0
51.72,0.0,1.0,1.0,1.0
51.76,3.0,1.0,1.0,1.0
51.8,3.0,1.0,1.0,1.0
51.84,0.0,1.0,1.0,1.0
51.88,5.0,1.0,1.0,1.0
51.92,6.0,1.0,1.0,1.0
51.96,2.0,1.0,1.0,1.0
52.0,2.0,1.0,1.0,1.0