File: XRD:XRR/STO/22099_STOL/22099_STOL_annealed_XRD_2-Theta_Omega.asc
*TYPE		=  Raw
*CLASS		=  ASCII CLASS
*SAMPLE		=
*COMMENT	=
*FNAME		=  22099_STOL_annealed_XRD_2-Theta_Omega.asc
*DATE		=  01-Jul-22 16:52

*GROUP_COUNT	=  1
*GONIO		=  SmartLab(In-plane), 0.000000
*ATTACHMENT	=  Z-Phi Stage
*ASC		=  0, 0, 0.000000, 0.000000
*I_MONOCHRO	=  Ge(220)x2, 0.000000
*FILTER		=  None
*C_MONOCHRO	=  None, 0.000000
*SLIT_NAME	=  0, Incident slit
*SLIT_NAME	=  1, Receiving slit # 1
*SLIT_NAME	=  2, Receiving slit # 2
*COUNTER	=  D/teX Ultra 250, 0
*POS_FORMAT	=  0
*SCAN_AXIS	=  2Theta/Omega
*MEAS_MODE	=  Continuous Scanning
*TARGET		=  29
*XRAY_CHAR	=  K-ALPHA1
*WAVE_LENGTH1	=  1.54059
*WAVE_LENGTH2	=  1.54441
*THICKNESS	=  0, 0.000000
*MU		=  0, 0.000000
*SCAN_MODE	=  2Theta/Omega
*SPEED_DIM	=  sec./step
*XUNIT		=  deg.
*YUNIT		=  counts
*SCALE_MODE	=  1
*REP_COUNT	=  0
*SE_COUNT	=  0
*STD_MATERIAL	=  Unknown, Unknown, 0.000000, 0.000000, 0.000000, 0.000000, 0.000000, 0.000000
*LATT_CONS	=  0, Unknown, Unknown, 0.000000, 0.000000, 0.000000, 0.000000, 0.000000, 0.000000
*SEC_COUNT	=  1
*TSPEC_SIZE	=  0
*EXTRA_SIZE	=  0
*MEMO		=

*BEGIN
*GROUP		=  0
*START		=  42
*STOP		=  52
*STEP		=  0.01
*OFFSET		=  -0.041400
*SPEED		=  18.1406
*SLIT_SPEC	=  0, 0.400mm, 0.4, 0.000000
*SLIT_SPEC	=  1, 0.400mm, 0.4, 0.000000
*SLIT_SPEC	=  2, 0.400mm, 0.4, 0.000000
*KV		=  40
*MA		=  30
*LOW		=  0.000000
*HIGH		=  0.000000
*CTEMPER	=  0, 0.000000
*CTEMPER	=  1, 0.000000
*CTEMPER	=  2, 0.000000
*PAREX		=  0, 0.000000
*PAREX		=  1, 0.000000
*PAREX		=  2, 0.000000
*PAREX		=  3, 0.000000
*PAREX		=  4, 0.000000
*PAREX		=  5, 0.000000
*PAREX		=  6, 0.000000
*PAREX		=  7, 0.000000
*PAREX		=  8, 0.000000
*PAREX		=  9, 0.000000
*PAREX		=  10, 0.000000
*PAREX		=  11, 0.000000
*PAREX		=  12, 0.000000
*PAREX		=  13, 0.000000
*PAREX		=  14, 0.000000
*PAREX		=  15, 0.000000
*FULL_SCALE	=  448844
*INDEX		=  0, 0, 0
*COUNT		=  1001
0.000000, 0.000000, 4.49445, 4.50555
7, 2, 2, 2
3.49445, 2.50555, 2, 3
2, 0.000000, 0.000000, 3
4, 2, 2, 2
0.000000, 5, 5, 8
5, 5, 2, 0.000000
2, 5, 2, 0.000000
2, 5, 3, 6
2, 0.000000, 0.000000, 0.000000
0.000000, 4, 0.000000, 0.000000
2, 2, 0.000000, 0.000000
4, 0.000000, 2, 0.000000
2, 2, 0.000000, 2
2, 2, 6, 4
0.000000, 6, 0.000000, 4
0.000000, 3, 0.000000, 2
0.000000, 5, 0.494446, 1.50555
0.000000, 18, 0.000000, 2
6, 2, 6, 4
11, 1, 7, 0.000000
3, 0.000000, 2, 0.000000
0.000000, 6, 5, 4.49445
5.50555, 0.000000, 3, 2.49445
6.50555, 4, 2, 2
16, 5, 3, 2
8.49445, 8, 1.50555, 9
7, 4, 7.49445, 1.50555
6.49445, 6.50555, 14, 19
8, 2, 6, 6.49445
14, 7.50555, 9.49445, 17.5056
13.4944, 16.5056, 10, 14.4944
20.5056, 8, 7, 7
0.000000, 6, 12, 7
31, 6.49445, 13.5056, 17
7, 7.49445, 9.50555, 6
6, 8, 14, 2
11, 7, 6, 7
20.4944, 4, 7.50555, 17
7, 7, 7, 12
7, 8, 5, 0.000000
2, 8, 5, 2
3, 0.000000, 7, 2
3, 0.000000, 8, 3
4, 4, 5, 4
0.000000, 2, 7, 3
0.000000, 11, 18, 0.000000
9, 2, 3, 2
11, 18, 11, 2
4, 11, 2.49445, 13.5056
14, 16.4944, 22.5056, 18.4944
22.4944, 23.0111, 23, 26
23, 27.9889, 25.4944, 46.5167
33.4833, 53.0111, 42, 50.9889
56.5056, 57, 45, 71
70.0111, 65.4944, 62, 48.9889
60.5056, 94.5056, 70, 108.989
81.5056, 96, 95, 92
110.011, 119.978, 143.011, 111
128, 115, 130.494, 140.483
141.022, 134.011, 147.989, 146.494
172.494, 180.494, 177.517, 194.989
206.506, 186.494, 214.011, 202.506
198.494, 217.989, 226.483, 247.506
223.506, 226.978, 246.011, 272
283.494, 260.528, 282.483, 262
291.506, 285.494, 266.011, 305.506
290.472, 308.011, 335.494, 320.011
328.483, 341.506, 360.461, 350.539
389, 400.989, 366.506, 402
376.517, 359.011, 383, 385.978
390.483, 403, 420.989, 368.517
404.011, 412.494, 411.506, 424.472
464.539, 396.494, 387.483, 371.989
448, 462.528, 439.494, 485
436.439, 510.55, 468, 440
477.011, 470.989, 434.506, 460
464.989, 443.494, 459.506, 461.528
408.967, 485.011, 455.506, 475.978
459.494, 431.539, 470.472, 464.517
480.506, 447.506, 431.483, 487.494
454, 425.506, 479.011, 467.494
469.472, 458.539, 411.517, 428.472
441.483, 441, 403, 415.022
415, 407.517, 441.967, 401.494
392.528, 429.989, 379.494, 360.011
388.989, 410.011, 444.989, 365.011
395, 388.494, 379, 412.978
360.517, 398, 386, 354.528
351.011, 338.461, 351.011, 294.506
310.011, 340, 310.483, 334.011
313.011, 298.978, 291.483, 325.517
321.022, 277.483, 320.506, 290.461
287.033, 262.483, 258, 266.044
252.494, 260.494, 251.494, 224.506
240.967, 244.506, 209.011, 249.022
207.472, 220, 244.022, 229.506
221.461, 222.022, 207.494, 178.022
208.978, 221.517, 204.483, 192.506
195.011, 191.011, 190.483, 198.989
204.022, 184.989, 170, 175
189.506, 188.989, 156.517, 149.483
185.011, 141.494, 174.517, 161.494
149.506, 161.989, 161.494, 183.494
173.022, 155.506, 163.989, 172.483
181.506, 179.494, 161.517, 156.506
133.978, 143.011, 140.506, 162.494
158.506, 183.956, 168.044, 149
148.506, 146.978, 166.494, 165.011
142.011, 140.472, 160.528, 139
184.989, 143.517, 163.494, 176.494
177, 128.494, 174.011, 146.989
165.506, 156.011, 145.989, 172.494
159.506, 164.989, 166.011, 156.989
162.517, 164.989, 170, 158
127, 147.011, 147, 150.989
146.022, 149.494, 151.461, 149.539
131.506, 156.989, 140.494, 128.494
157.494, 146.517, 148.483, 162.517
158.506, 141.989, 128.517, 134.978
127.011, 155.989, 154.011, 127.989
147, 131.022, 104.483, 126
127.494, 128.494, 127, 118.011
134.506, 130.494, 138.472, 144.011
99.0222, 106.494, 132.989, 108.022
106.506, 109.483, 116.011, 128.989
95.0111, 112.506, 119.472, 110.022
103.483, 99.0222, 117.483, 101
92.5167, 83.4833, 119.494, 115.506
130, 117.011, 101.483, 124.022
125.494, 105.494, 98.5056, 128.989
113.506, 86.9889, 119, 128.506
112, 122, 106, 116.494
125.506, 135.517, 113, 148
152.483, 146.494, 155.022, 169.472
177.011, 146.517, 174.472, 216.506
202.494, 215.494, 187.517, 219.506
243.978, 243, 264.011, 272
241.483, 297.978, 331.528, 306.506
350.989, 353, 391.989, 370.483
407.011, 450.011, 467.989, 519.494
536.494, 655.517, 659.944, 700.539
750.978, 852.989, 898.044, 979.889
1104.08, 1317.47, 1453.47, 1495.51
1655.96, 1988.46, 2211.93, 2631.45
2852.94, 3369.04, 4099.34, 5109.39
6420.94, 8105.63, 10587.9, 15071.2
22876.4, 41192.1, 139097, 583689
1301861, 2170760.3, 3552386.5, 4742846
4745553.5, 5418685.5, 6058299, 2643462
1721180.9, 1712454.8, 1701545.3, 721622
179673, 79570, 46076, 29529.9
19139.7, 13494.5, 9985.88, 7548.71
5965.13, 4705.18, 3814.47, 3154.11
2618.1, 2206.92, 1921.56, 1638
1401.55, 1220.53, 1124.53, 964.517
874.494, 843.978, 715.55, 613.989
555.022, 516.494, 454.022, 414.494
372.011, 361.483, 315.483, 331.022
315.472, 291.044, 230, 233.022
186.989, 223, 237.483, 197.494
198.517, 156.011, 173.989, 160
172.989, 147.506, 146.494, 114.022
114.506, 116.494, 108.978, 93.0222
123.483, 110.011, 96.0111, 85.4833
110.517, 71.9889, 70.9889, 64.0111
90, 62.9889, 78.5167, 77.9889
66.5167, 73, 54, 44.4944
37.4944, 45.5056, 54.5056, 49.4944
53.5056, 49, 44, 42
34, 40, 47.4833, 34.5167
40, 32.9889, 30.5056, 28
49, 35, 34.5056, 24.9889
22.0111, 23, 24, 27
25.9889, 26.0111, 34, 20
34, 17.4944, 14.5056, 20.4944
13.5056, 10, 16, 19
21, 17.4944, 11.5056, 10
20, 14, 14, 10
14, 14, 9.49445, 11.5056
4, 7, 17, 16
16, 10, 5, 11
3, 11, 0.000000, 15
10, 9, 8, 8
7, 8, 5, 5
8, 9, 3, 4
7, 2, 16, 3
2, 8, 5, 0.000000
8, 8, 9, 2
5.49445, 3.50555, 11, 0.000000
6.49445, 2.50555, 2, 2
10, 6.49445, 7, 11.5056
5, 10, 2, 4
4, 4, 5, 2
5, 6, 5, 10
4, 5, 2, 5
2, 4, 2, 3
4, 2, 6, 4
0.000000, 2, 3, 4
1, 4.49445, 0.505554, 6
6, 0.000000, 4, 4
4, 5, 2, 8
7, 1.49445, 5.50555, 7
0.000000, 4, 2, 10
6, 2, 0.000000, 2
3, 2, 2, 8
2, 5.49445, 1.50555, 2.49445
2.50555, 3, 0.000000, 0.000000
5, 5, 0.000000, 2
4, 4, 2, 2
4, 2.49445, 5.50555, 5
0.000000, 4, 4, 5
0.000000, 6, 2, 4
0.000000, 0.000000, 2, 3
2, 2, 2, 2
0.000000, 0.000000, 2, 5
4, 0.000000, 0.000000, 3
0.000000, 0.000000, 0.000000, 0.000000
2, 2, 2, 0.494446
4.50555, 0.000000, 3, 0.494446
3.50555, 3, 1, 2
2, 2, 2, 2
4, 2, 2, 0.000000
2, 0.000000, 2, 0.000000
2, 0.000000, 0.000000, 5
4, 6, 2, 5
0.000000, 5, 2, 0.000000
3, 2, 3, 0.000000
4, 2, 2, 0.000000
2, 2, 0.000000, 0.000000
0.000000, 0.000000, 0.000000, 0.000000
4, 0.000000, 5, 2
2, 0.000000, 3, 2
2, 2, 4, 2
0.494446, 1.50555, 0.000000, 0.000000
2, 0.000000, 9, 2
0.000000, 9, 1, 2
4, 2, 4, 0.494446
0.505554, 0.000000, 0.000000, 0.000000
0.000000, 0.000000, 0.000000, 5
0.000000, 0.000000, 2, 0.000000
0.000000, 0.000000, 2, 1.49445
1.50555, 0.000000, 0.000000, 0.000000
0.000000, 5, 0.000000, 2
0.000000, 4, 0.000000, 0.000000
0.000000, 0.000000, 0.000000, 4
4, 0.000000, 0.000000, 0.000000
0.000000, 1, 2, 5
3, 5, 2, 0.000000
0.000000, 0.000000, 2, 0.000000
1
*END

*EOF