File: XRD:XRR/LCO/22172_LCOL/22172_LCOL_002_XRD.csv
#twotheta, yobs, ycal, bkg, diff
42.0,23.0,1.0,1.0,1.0
42.05,8.0,1.0,1.0,1.0
42.1,19.5056,1.0,1.0,1.0
42.15,20.0,1.0,1.0,1.0
42.2,9.0,1.0,1.0,1.0
42.25,17.0,1.0,1.0,1.0
42.3,18.4944,1.0,1.0,1.0
42.35,27.0,1.0,1.0,1.0
42.4,26.0,1.0,1.0,1.0
42.45,45.5056,1.0,1.0,1.0
42.5,20.4944,1.0,1.0,1.0
42.55,21.0,1.0,1.0,1.0
42.6,31.4944,1.0,1.0,1.0
42.65,20.0,1.0,1.0,1.0
42.7,21.0,1.0,1.0,1.0
42.75,34.0111,1.0,1.0,1.0
42.8,23.4944,1.0,1.0,1.0
42.85,33.9889,1.0,1.0,1.0
42.9,29.0111,1.0,1.0,1.0
42.95,33.0,1.0,1.0,1.0
43.0,31.5056,1.0,1.0,1.0
43.05,14.0,1.0,1.0,1.0
43.1,27.4944,1.0,1.0,1.0
43.15,18.5056,1.0,1.0,1.0
43.2,38.0,1.0,1.0,1.0
43.25,33.0,1.0,1.0,1.0
43.3,58.4944,1.0,1.0,1.0
43.35,58.0,1.0,1.0,1.0
43.4,34.0,1.0,1.0,1.0
43.45,41.5056,1.0,1.0,1.0
43.5,33.0111,1.0,1.0,1.0
43.55,16.0,1.0,1.0,1.0
43.6,18.5056,1.0,1.0,1.0
43.65,28.4944,1.0,1.0,1.0
43.7,42.5056,1.0,1.0,1.0
43.75,52.4944,1.0,1.0,1.0
43.8,96.0,1.0,1.0,1.0
43.85,77.0,1.0,1.0,1.0
43.9,60.4944,1.0,1.0,1.0
43.95,29.5056,1.0,1.0,1.0
44.0,35.0,1.0,1.0,1.0
44.05,41.0,1.0,1.0,1.0
44.1,47.0,1.0,1.0,1.0
44.15,75.0111,1.0,1.0,1.0
44.2,102.9889,1.0,1.0,1.0
44.25,113.0,1.0,1.0,1.0
44.3,109.0333,1.0,1.0,1.0
44.35,94.5056,1.0,1.0,1.0
44.4,73.5167,1.0,1.0,1.0
44.45,55.0,1.0,1.0,1.0
44.5,36.5167,1.0,1.0,1.0
44.55,55.9889,1.0,1.0,1.0
44.6,104.5056,1.0,1.0,1.0
44.65,189.4833,1.0,1.0,1.0
44.7,258.4833,1.0,1.0,1.0
44.75,262.0,1.0,1.0,1.0
44.8,278.4833,1.0,1.0,1.0
44.85,212.5278,1.0,1.0,1.0
44.9,132.0222,1.0,1.0,1.0
44.95,65.9889,1.0,1.0,1.0
45.0,104.0111,1.0,1.0,1.0
45.05,271.0,1.0,1.0,1.0
45.1,431.4722,1.0,1.0,1.0
45.15,737.4278,1.0,1.0,1.0
45.2,893.0111,1.0,1.0,1.0
45.25,1003.56,1.0,1.0,1.0
45.3,911.5056,1.0,1.0,1.0
45.35,676.4944,1.0,1.0,1.0
45.4,370.9667,1.0,1.0,1.0
45.45,473.9556,1.0,1.0,1.0
45.5,1029.93,1.0,1.0,1.0
45.55,2549.98,1.0,1.0,1.0
45.6,5011.439,1.0,1.0,1.0
45.65,8584.41,1.0,1.0,1.0
45.7,13172.6,1.0,1.0,1.0
45.75,17456.9,1.0,1.0,1.0
45.8,21911.1,1.0,1.0,1.0
45.85,26011.2,1.0,1.0,1.0
45.9,28034.6,1.0,1.0,1.0
45.95,28348.8,1.0,1.0,1.0
46.0,26848.877,1.0,1.0,1.0
46.05,23697.416,1.0,1.0,1.0
46.1,19311.2,1.0,1.0,1.0
46.15,14378.8,1.0,1.0,1.0
46.2,9727.13,1.0,1.0,1.0
46.25,5761.18,1.0,1.0,1.0
46.3,3011.69,1.0,1.0,1.0
46.35,1337.0,1.0,1.0,1.0
46.4,835.0667,1.0,1.0,1.0
46.45,1032.47,1.0,1.0,1.0
46.5,1586.58,1.0,1.0,1.0
46.55,1994.49,1.0,1.0,1.0
46.6,2200.02,1.0,1.0,1.0
46.65,2067.02,1.0,1.0,1.0
46.7,1697.01,1.0,1.0,1.0
46.75,1263.07,1.0,1.0,1.0
46.8,825.4722,1.0,1.0,1.0
46.85,563.4833,1.0,1.0,1.0
46.9,625.4944,1.0,1.0,1.0
46.95,787.55,1.0,1.0,1.0
47.0,1013.54,1.0,1.0,1.0
47.05,1243.94,1.0,1.0,1.0
47.1,1372.54,1.0,1.0,1.0
47.15,1272.58,1.0,1.0,1.0
47.2,1194.47,1.0,1.0,1.0
47.25,1035.46,1.0,1.0,1.0
47.3,899.0,1.0,1.0,1.0
47.35,967.9333,1.0,1.0,1.0
47.4,1088.47,1.0,1.0,1.0
47.45,1517.48,1.0,1.0,1.0
47.5,1830.56,1.0,1.0,1.0
47.55,2333.46,1.0,1.0,1.0
47.6,2914.49,1.0,1.0,1.0
47.65,3387.96,1.0,1.0,1.0
47.7,4042.41,1.0,1.0,1.0
47.75,5676.54,1.0,1.0,1.0
47.8,9501.38,1.0,1.0,1.0
47.85,24654.334,1.0,1.0,1.0
47.9,1471851.75,1.0,1.0,1.0
47.95,1744818.0,1.0,1.0,1.0
48.0,14375355.0,1.0,1.0,1.0
48.05,267233,1.0,1.0,1.0
48.1,33127,1.0,1.0,1.0
48.15,10200.1,1.0,1.0,1.0
48.2,5122.0,1.0,1.0,1.0
48.25,3042.9,1.0,1.0,1.0
48.3,2166.07,1.0,1.0,1.0
48.35,1459.56,1.0,1.0,1.0
48.4,1012.93,1.0,1.0,1.0
48.45,671.5167,1.0,1.0,1.0
48.5,462.9556,1.0,1.0,1.0
48.55,369.4944,1.0,1.0,1.0
48.6,326.5389,1.0,1.0,1.0
48.65,287.5167,1.0,1.0,1.0
48.7,297.4722,1.0,1.0,1.0
48.75,232.0111,1.0,1.0,1.0
48.8,218.0222,1.0,1.0,1.0
48.85,165.9778,1.0,1.0,1.0
48.9,143.0111,1.0,1.0,1.0
48.95,102.0111,1.0,1.0,1.0
49.0,85.0,1.0,1.0,1.0
49.05,70.0,1.0,1.0,1.0
49.1,61.4944,1.0,1.0,1.0
49.15,92.0222,1.0,1.0,1.0
49.2,85.9889,1.0,1.0,1.0
49.25,87.0,1.0,1.0,1.0
49.3,71.4944,1.0,1.0,1.0
49.35,69.0,1.0,1.0,1.0
49.4,40.0,1.0,1.0,1.0
49.45,49.0,1.0,1.0,1.0
49.5,56.5278,1.0,1.0,1.0
49.55,33.0,1.0,1.0,1.0
49.6,44.9889,1.0,1.0,1.0
49.65,38.0,1.0,1.0,1.0
49.7,39.0,1.0,1.0,1.0
49.75,33.0,1.0,1.0,1.0
49.8,34.9778,1.0,1.0,1.0
49.85,19.0,1.0,1.0,1.0
49.9,17.0111,1.0,1.0,1.0
49.95,14.0,1.0,1.0,1.0
50.0,26.0,1.0,1.0,1.0
50.05,21.4944,1.0,1.0,1.0
50.1,21.0,1.0,1.0,1.0
50.15,18.4944,1.0,1.0,1.0
50.2,17.0,1.0,1.0,1.0
50.25,38.0,1.0,1.0,1.0
50.3,8.9889,1.0,1.0,1.0
50.35,26.5056,1.0,1.0,1.0
50.4,22.5056,1.0,1.0,1.0
50.45,24.4944,1.0,1.0,1.0
50.5,12.5056,1.0,1.0,1.0
50.55,8.0111,1.0,1.0,1.0
50.6,14.4944,1.0,1.0,1.0
50.65,23.0111,1.0,1.0,1.0
50.7,8.0,1.0,1.0,1.0
50.75,10.4944,1.0,1.0,1.0
50.8,15.0,1.0,1.0,1.0
50.85,16.0,1.0,1.0,1.0
50.9,20.0,1.0,1.0,1.0
50.95,17.5056,1.0,1.0,1.0
51.0,14.0,1.0,1.0,1.0
51.05,7.5056,1.0,1.0,1.0
51.1,10.0,1.0,1.0,1.0
51.15,10.0,1.0,1.0,1.0
51.2,10.0,1.0,1.0,1.0
51.25,14.4944,1.0,1.0,1.0
51.3,7.0,1.0,1.0,1.0
51.35,12.0,1.0,1.0,1.0
51.4,6.0,1.0,1.0,1.0
51.45,7.0,1.0,1.0,1.0
51.5,9.0,1.0,1.0,1.0
51.55,8.0,1.0,1.0,1.0
51.6,8.0,1.0,1.0,1.0
51.65,21.0,1.0,1.0,1.0
51.7,5.0,1.0,1.0,1.0
51.75,6.4944,1.0,1.0,1.0
51.8,16.5056,1.0,1.0,1.0
51.85,6.0,1.0,1.0,1.0
51.9,8.0,1.0,1.0,1.0
51.95,6.0,1.0,1.0,1.0
52.0,16.0,1.0,1.0,1.0
0.44,1714498.0,1.0,1.0,1.0
0.49,1815987.0,1.0,1.0,1.0
0.54,1859570.5,1.0,1.0,1.0
0.59,1867453.0,1.0,1.0,1.0
0.64,1560134.5,1.0,1.0,1.0
0.69,1205191.125,1.0,1.0,1.0
0.74,825420,1.0,1.0,1.0
0.79,517554,1.0,1.0,1.0
0.84,313801,1.0,1.0,1.0
0.89,204207,1.0,1.0,1.0
0.94,145641,1.0,1.0,1.0
0.99,108606,1.0,1.0,1.0
1.04,81877.0,1.0,1.0,1.0
1.09,61360,1.0,1.0,1.0
1.14,47385.5,1.0,1.0,1.0
1.19,38264,1.0,1.0,1.0
1.24,31635.5,1.0,1.0,1.0
1.29,26634.502,1.0,1.0,1.0
1.34,22501,1.0,1.0,1.0
1.39,18159.0,1.0,1.0,1.0
1.44,14931.002,1.0,1.0,1.0
1.49,12375.502,1.0,1.0,1.0
1.54,10416.5,1.0,1.0,1.0
1.59,9052.498,1.0,1.0,1.0
1.64,7900.0,1.0,1.0,1.0
1.69,6983.501,1.0,1.0,1.0
1.74,6084.5,1.0,1.0,1.0
1.79,5388.5,1.0,1.0,1.0
1.84,4529.5,1.0,1.0,1.0
1.89,3926,1.0,1.0,1.0
1.94,3589.5,1.0,1.0,1.0
1.99,3166,1.0,1.0,1.0
2.04,2942.5,1.0,1.0,1.0
2.09,2666.0,1.0,1.0,1.0
2.14,2494.5,1.0,1.0,1.0
2.19,2314,1.0,1.0,1.0
2.24,2022,1.0,1.0,1.0
2.29,1852,1.0,1.0,1.0
2.34,1699.0,1.0,1.0,1.0
2.39,1671,1.0,1.0,1.0
2.44,1594.5,1.0,1.0,1.0
2.49,1442,1.0,1.0,1.0
2.54,1402.5,1.0,1.0,1.0
2.59,1360,1.0,1.0,1.0
2.64,1291.5,1.0,1.0,1.0
2.69,1197.5,1.0,1.0,1.0
2.74,1115.5,1.0,1.0,1.0
2.79,1122,1.0,1.0,1.0
2.84,1062,1.0,1.0,1.0
2.89,1044,1.0,1.0,1.0
2.94,940.0003,1.0,1.0,1.0
2.99,913.4994,1.0,1.0,1.0
3.04,866.0,1.0,1.0,1.0
3.09,865.9999,1.0,1.0,1.0
3.14,796.5005,1.0,1.0,1.0
3.19,748.4996,1.0,1.0,1.0
3.24,740.9999,1.0,1.0,1.0
3.29,679.4998,1.0,1.0,1.0
3.34,670.5002,1.0,1.0,1.0
3.39,632.4998,1.0,1.0,1.0
3.44,590.5002,1.0,1.0,1.0
3.49,616.5001,1.0,1.0,1.0
3.54,547.9996,1.0,1.0,1.0
3.59,529.0,1.0,1.0,1.0
3.64,439.0004,1.0,1.0,1.0
3.69,436.5001,1.0,1.0,1.0
3.74,455.0,1.0,1.0,1.0
3.79,408.5001,1.0,1.0,1.0
3.84,370.0002,1.0,1.0,1.0
3.89,357.0001,1.0,1.0,1.0
3.94,314.0,1.0,1.0,1.0
3.99,289.0002,1.0,1.0,1.0
4.04,275.0002,1.0,1.0,1.0
4.09,257.9998,1.0,1.0,1.0
4.14,210.0002,1.0,1.0,1.0
4.19,234.0,1.0,1.0,1.0
4.24,219.9998,1.0,1.0,1.0
4.29,203.5001,1.0,1.0,1.0
4.34,212.0,1.0,1.0,1.0
4.39,155.5003,1.0,1.0,1.0
4.44,168.0,1.0,1.0,1.0
4.49,169.5001,1.0,1.0,1.0
4.5,147.4999,1.0,1.0,1.0