File: XRD:XRR/LCO/22163_LCOT/22163_002_XRD.csv
#twotheta, yobs, ycal, bkg, diff
42.0,8.4944,1.0,1.0,1.0
42.04,5.0,1.0,1.0,1.0
42.08,5.0,1.0,1.0,1.0
42.12,3.0,1.0,1.0,1.0
42.16,8.0,1.0,1.0,1.0
42.2,17.9889,1.0,1.0,1.0
42.24,3.4944,1.0,1.0,1.0
42.28,2.0,1.0,1.0,1.0
42.32,14.4944,1.0,1.0,1.0
42.36,16.0,1.0,1.0,1.0
42.4,15.0,1.0,1.0,1.0
42.44,37.0,1.0,1.0,1.0
42.48,30.9889,1.0,1.0,1.0
42.52,16.5056,1.0,1.0,1.0
42.56,10.0,1.0,1.0,1.0
42.6,20.0,1.0,1.0,1.0
42.64,28.4944,1.0,1.0,1.0
42.68,25.5056,1.0,1.0,1.0
42.72,14.5056,1.0,1.0,1.0
42.76,5.4944,1.0,1.0,1.0
42.8,12.0111,1.0,1.0,1.0
42.84,7.0,1.0,1.0,1.0
42.88,7.0,1.0,1.0,1.0
42.92,29.0,1.0,1.0,1.0
42.96,13.0,1.0,1.0,1.0
43.0,30.9889,1.0,1.0,1.0
43.04,37.4944,1.0,1.0,1.0
43.08,43.4944,1.0,1.0,1.0
43.12,40.0,1.0,1.0,1.0
43.16,45.0,1.0,1.0,1.0
43.2,35.0,1.0,1.0,1.0
43.24,39.5056,1.0,1.0,1.0
43.28,33.0,1.0,1.0,1.0
43.32,21.0,1.0,1.0,1.0
43.36,11.5056,1.0,1.0,1.0
43.4,6.0,1.0,1.0,1.0
43.44,23.0,1.0,1.0,1.0
43.48,13.5056,1.0,1.0,1.0
43.52,12.0,1.0,1.0,1.0
43.56,26.0,1.0,1.0,1.0
43.6,49.5056,1.0,1.0,1.0
43.64,47.0,1.0,1.0,1.0
43.68,64.0,1.0,1.0,1.0
43.72,71.4944,1.0,1.0,1.0
43.76,72.5056,1.0,1.0,1.0
43.8,88.0,1.0,1.0,1.0
43.84,88.5167,1.0,1.0,1.0
43.88,99.5056,1.0,1.0,1.0
43.92,68.0,1.0,1.0,1.0
43.96,54.9889,1.0,1.0,1.0
44.0,44.5056,1.0,1.0,1.0
44.04,23.5056,1.0,1.0,1.0
44.08,18.0,1.0,1.0,1.0
44.12,26.5056,1.0,1.0,1.0
44.16,16.0,1.0,1.0,1.0
44.2,21.0,1.0,1.0,1.0
44.24,53.5056,1.0,1.0,1.0
44.28,48.4944,1.0,1.0,1.0
44.32,102.9889,1.0,1.0,1.0
44.36,113.0111,1.0,1.0,1.0
44.4,163.5056,1.0,1.0,1.0
44.44,165.4944,1.0,1.0,1.0
44.48,165.5278,1.0,1.0,1.0
44.52,147.9889,1.0,1.0,1.0
44.56,140.5056,1.0,1.0,1.0
44.6,171.0222,1.0,1.0,1.0
44.64,116.4833,1.0,1.0,1.0
44.68,79.0,1.0,1.0,1.0
44.72,76.0,1.0,1.0,1.0
44.76,39.0111,1.0,1.0,1.0
44.8,31.0,1.0,1.0,1.0
44.84,36.4833,1.0,1.0,1.0
44.88,51.9778,1.0,1.0,1.0
44.92,98.5056,1.0,1.0,1.0
44.96,121.0,1.0,1.0,1.0
45.0,199.4944,1.0,1.0,1.0
45.04,248.4833,1.0,1.0,1.0
45.08,316.9889,1.0,1.0,1.0
45.12,327.9889,1.0,1.0,1.0
45.16,407.4944,1.0,1.0,1.0
45.2,405.0111,1.0,1.0,1.0
45.24,409.0,1.0,1.0,1.0
45.28,369.5167,1.0,1.0,1.0
45.32,315.0,1.0,1.0,1.0
45.36,251.9889,1.0,1.0,1.0
45.4,164.0,1.0,1.0,1.0
45.44,87.0,1.0,1.0,1.0
45.48,49.0,1.0,1.0,1.0
45.52,55.0,1.0,1.0,1.0
45.56,103.0,1.0,1.0,1.0
45.6,232.0,1.0,1.0,1.0
45.64,376.0222,1.0,1.0,1.0
45.68,622.5278,1.0,1.0,1.0
45.72,897.4611,1.0,1.0,1.0
45.76,1207.97,1.0,1.0,1.0
45.8,1624.41,1.0,1.0,1.0
45.84,1870.96,1.0,1.0,1.0
45.88,2225.93,1.0,1.0,1.0
45.92,2440.98,1.0,1.0,1.0
45.96,2575.51,1.0,1.0,1.0
46.0,2589.98,1.0,1.0,1.0
46.04,2632.96,1.0,1.0,1.0
46.08,2537.47,1.0,1.0,1.0
46.12,2293.55,1.0,1.0,1.0
46.16,1842.02,1.0,1.0,1.0
46.2,1495.53,1.0,1.0,1.0
46.24,1084.07,1.0,1.0,1.0
46.28,809.9667,1.0,1.0,1.0
46.32,1514.91,1.0,1.0,1.0
46.36,6629.27,1.0,1.0,1.0
46.4,42044.3,1.0,1.0,1.0
46.44,4705334.0,1.0,1.0,1.0
46.48,26950144.0,1.0,1.0,1.0
46.52,5644434.0,1.0,1.0,1.0
46.56,192339,1.0,1.0,1.0
46.6,69995.9,1.0,1.0,1.0
46.64,44742.9,1.0,1.0,1.0
46.68,34330.1,1.0,1.0,1.0
46.72,28089.6,1.0,1.0,1.0
46.76,24410.5,1.0,1.0,1.0
46.8,21091,1.0,1.0,1.0
46.84,18713.1,1.0,1.0,1.0
46.88,16320.5,1.0,1.0,1.0
46.92,14091.5,1.0,1.0,1.0
46.96,12098.9,1.0,1.0,1.0
47.0,10006.1,1.0,1.0,1.0
47.04,8100.04,1.0,1.0,1.0
47.08,6434.97,1.0,1.0,1.0
47.12,5138.71,1.0,1.0,1.0
47.16,3669.42,1.0,1.0,1.0
47.2,2539.02,1.0,1.0,1.0
47.24,1660.96,1.0,1.0,1.0
47.28,1008.04,1.0,1.0,1.0
47.32,481.4944,1.0,1.0,1.0
47.36,220.5056,1.0,1.0,1.0
47.4,104.0,1.0,1.0,1.0
47.44,113.5056,1.0,1.0,1.0
47.48,236.4944,1.0,1.0,1.0
47.52,391.0222,1.0,1.0,1.0
47.56,526.4722,1.0,1.0,1.0
47.6,707.9667,1.0,1.0,1.0
47.64,929.9445,1.0,1.0,1.0
47.68,1062.93,1.0,1.0,1.0
47.72,974.5056,1.0,1.0,1.0
47.76,1064.02,1.0,1.0,1.0
47.8,882.0222,1.0,1.0,1.0
47.84,841.0111,1.0,1.0,1.0
47.88,761.4944,1.0,1.0,1.0
47.92,604.4833,1.0,1.0,1.0
47.96,450.5278,1.0,1.0,1.0
48.0,264.5167,1.0,1.0,1.0
48.04,211.4833,1.0,1.0,1.0
48.08,123.9889,1.0,1.0,1.0
48.12,56.0111,1.0,1.0,1.0
48.16,40.0,1.0,1.0,1.0
48.2,36.0,1.0,1.0,1.0
48.24,48.5056,1.0,1.0,1.0
48.28,94.0,1.0,1.0,1.0
48.32,119.4944,1.0,1.0,1.0
48.36,158.4833,1.0,1.0,1.0
48.4,203.5056,1.0,1.0,1.0
48.44,186.9889,1.0,1.0,1.0
48.48,199.4611,1.0,1.0,1.0
48.52,159.9778,1.0,1.0,1.0
48.56,152.5056,1.0,1.0,1.0
48.6,138.0,1.0,1.0,1.0
48.64,127.0,1.0,1.0,1.0
48.68,69.9667,1.0,1.0,1.0
48.72,54.9889,1.0,1.0,1.0
48.76,35.4944,1.0,1.0,1.0
48.8,20.4944,1.0,1.0,1.0
48.84,21.0,1.0,1.0,1.0
48.88,24.5056,1.0,1.0,1.0
48.92,32.0,1.0,1.0,1.0
48.96,33.9889,1.0,1.0,1.0
49.0,50.5056,1.0,1.0,1.0
49.04,54.4944,1.0,1.0,1.0
49.08,72.4944,1.0,1.0,1.0
49.12,57.0,1.0,1.0,1.0
49.16,76.0,1.0,1.0,1.0
49.2,63.9889,1.0,1.0,1.0
49.24,81.5056,1.0,1.0,1.0
49.28,62.4944,1.0,1.0,1.0
49.32,43.5167,1.0,1.0,1.0
49.36,36.4944,1.0,1.0,1.0
49.4,33.4944,1.0,1.0,1.0
49.44,32.0,1.0,1.0,1.0
49.48,19.0,1.0,1.0,1.0
49.52,19.0,1.0,1.0,1.0
49.56,13.0,1.0,1.0,1.0
49.6,12.4944,1.0,1.0,1.0
49.64,6.0,1.0,1.0,1.0
49.68,20.0,1.0,1.0,1.0
49.72,22.4944,1.0,1.0,1.0
49.76,22.0,1.0,1.0,1.0
49.8,27.5056,1.0,1.0,1.0
49.84,21.0,1.0,1.0,1.0
49.88,29.4944,1.0,1.0,1.0
49.92,27.0,1.0,1.0,1.0
49.96,15.4833,1.0,1.0,1.0
50.0,23.0,1.0,1.0,1.0
50.04,7.4944,1.0,1.0,1.0
50.08,38.5056,1.0,1.0,1.0
50.12,17.0,1.0,1.0,1.0
50.16,14.0,1.0,1.0,1.0
50.2,8.0,1.0,1.0,1.0
50.24,7.0,1.0,1.0,1.0
50.28,8.0,1.0,1.0,1.0
50.32,9.0,1.0,1.0,1.0
50.36,10.4944,1.0,1.0,1.0
50.4,4.5056,1.0,1.0,1.0
50.44,16.4944,1.0,1.0,1.0
50.48,14.0,1.0,1.0,1.0
50.52,13.4944,1.0,1.0,1.0
50.56,7.4944,1.0,1.0,1.0
50.6,9.0,1.0,1.0,1.0
50.64,11.0,1.0,1.0,1.0
50.68,16.0,1.0,1.0,1.0
50.72,10.4944,1.0,1.0,1.0
50.76,11.0,1.0,1.0,1.0
50.8,5.4944,1.0,1.0,1.0
50.84,2.0,1.0,1.0,1.0
50.88,7.0,1.0,1.0,1.0
50.92,14.0,1.0,1.0,1.0
50.96,0.0,1.0,1.0,1.0
51.0,11.0,1.0,1.0,1.0
51.04,2.0,1.0,1.0,1.0
51.08,9.5056,1.0,1.0,1.0
51.12,7.0,1.0,1.0,1.0
51.16,9.0,1.0,1.0,1.0
51.2,0.0,1.0,1.0,1.0
51.24,2.5056,1.0,1.0,1.0
51.28,3.0,1.0,1.0,1.0
51.32,0.0,1.0,1.0,1.0
51.36,7.0,1.0,1.0,1.0
51.4,1.5056,1.0,1.0,1.0
51.44,4.0,1.0,1.0,1.0
51.48,7.0,1.0,1.0,1.0
51.52,6.0111,1.0,1.0,1.0
51.56,6.0,1.0,1.0,1.0
51.6,2.0,1.0,1.0,1.0
51.64,0.0,1.0,1.0,1.0
51.68,4.0,1.0,1.0,1.0
51.72,3.0,1.0,1.0,1.0
51.76,5.0,1.0,1.0,1.0
51.8,7.0,1.0,1.0,1.0
51.84,4.0,1.0,1.0,1.0
51.88,2.0,1.0,1.0,1.0
51.92,6.0,1.0,1.0,1.0
51.96,4.0,1.0,1.0,1.0
52.0,10.5056,1.0,1.0,1.0