File: XRD:XRR/LCO/22163_LCOT/22163_002_XRD_2-Theta_Omega.asc
*TYPE		=  Raw
*CLASS		=  ASCII CLASS
*SAMPLE		=
*COMMENT	=
*FNAME		=  22163_002_XRD_2-Theta_Omega.asc
*DATE		=  21-Nov-22 23:21

*GROUP_COUNT	=  1
*GONIO		=  SmartLab(In-plane), 0.000000
*ATTACHMENT	=  Z-Phi Stage
*ASC		=  0, 0, 0.000000, 0.000000
*I_MONOCHRO	=  Ge(220)x2, 0.000000
*FILTER		=  None
*C_MONOCHRO	=  None, 0.000000
*SLIT_NAME	=  0, Incident slit
*SLIT_NAME	=  1, Receiving slit # 1
*SLIT_NAME	=  2, Receiving slit # 2
*COUNTER	=  D/teX Ultra 250, 0
*POS_FORMAT	=  0
*SCAN_AXIS	=  2Theta/Omega
*MEAS_MODE	=  Continuous Scanning
*TARGET		=  29
*XRAY_CHAR	=  K-ALPHA1
*WAVE_LENGTH1	=  1.54059
*WAVE_LENGTH2	=  1.54441
*THICKNESS	=  0, 0.000000
*MU		=  0, 0.000000
*SCAN_MODE	=  2Theta/Omega
*SPEED_DIM	=  sec./step
*XUNIT		=  deg.
*YUNIT		=  counts
*SCALE_MODE	=  1
*REP_COUNT	=  0
*SE_COUNT	=  0
*STD_MATERIAL	=  Unknown, Unknown, 0.000000, 0.000000, 0.000000, 0.000000, 0.000000, 0.000000
*LATT_CONS	=  0, Unknown, Unknown, 0.000000, 0.000000, 0.000000, 0.000000, 0.000000, 0.000000
*SEC_COUNT	=  1
*TSPEC_SIZE	=  0
*EXTRA_SIZE	=  0
*MEMO		=

*BEGIN
*GROUP		=  0
*START		=  42
*STOP		=  52
*STEP		=  0.01
*OFFSET		=  0.0344
*SPEED		=  23.9588
*SLIT_SPEC	=  0, 0.400mm, 0.4, 0.000000
*SLIT_SPEC	=  1, 0.400mm, 0.4, 0.000000
*SLIT_SPEC	=  2, 0.400mm, 0.4, 0.000000
*KV		=  40
*MA		=  30
*LOW		=  0.000000
*HIGH		=  0.000000
*CTEMPER	=  0, 0.000000
*CTEMPER	=  1, 0.000000
*CTEMPER	=  2, 0.000000
*PAREX		=  0, 0.000000
*PAREX		=  1, 0.000000
*PAREX		=  2, 0.000000
*PAREX		=  3, 0.000000
*PAREX		=  4, 0.000000
*PAREX		=  5, 0.000000
*PAREX		=  6, 0.000000
*PAREX		=  7, 0.000000
*PAREX		=  8, 0.000000
*PAREX		=  9, 0.000000
*PAREX		=  10, 0.000000
*PAREX		=  11, 0.000000
*PAREX		=  12, 0.000000
*PAREX		=  13, 0.000000
*PAREX		=  14, 0.000000
*PAREX		=  15, 0.000000
*FULL_SCALE	=  1434991.8
*INDEX		=  0, 0, 0
*COUNT		=  1001
8.49445, 7.50555, 7, 8
5, 10, 0.000000, 2
5, 10, 6, 10
3, 7, 8.98889, 10.0111
8, 8, 0.000000, 4
17.9889, 12.0111, 15, 6
3.49445, 4.50555, 14, 14
2, 15.4944, 8.50555, 10
14.4944, 22.4944, 24.0111, 12
16, 10, 16, 31
15, 17.4944, 21.5056, 26
37, 21, 21, 19
30.9889, 25.5056, 18.5056, 34.4944
16.5056, 35.9889, 22, 24.0111
10, 20, 19, 16
20, 20, 30, 14
28.4944, 16.5056, 9, 16.4944
25.5056, 9, 8, 8.98889
14.5056, 17.5056, 4, 7
5.49445, 9.50555, 13, 3.98889
12.0111, 16, 13, 11
7, 5, 18, 9
7, 11, 14, 17
29, 16, 14, 23
13, 13.9889, 35.0111, 30
30.9889, 39.0111, 40, 28
37.4944, 59, 33, 39.4944
43.4944, 43.0111, 58.5056, 53
40, 47.4944, 37.5056, 34
45, 46.9889, 39.0111, 41
35, 45, 23, 23.4944
39.5056, 48.4944, 27, 35.5056
33, 31, 18, 21
21, 41, 11, 19.4944
11.5056, 19, 12, 15
6, 20, 16, 7
23, 9, 3, 1.49445
13.5056, 15, 14, 18
12, 26, 13, 24
26, 19, 21, 31.4944
49.5056, 24, 29, 36
47, 42.9889, 54.0111, 42.4944
64, 66.9889, 54.0111, 75
71.4944, 73.4944, 72.5167, 62.9889
72.5056, 72.4944, 83.0111, 73.4944
88, 106, 78.9889, 107
88.5167, 81.4722, 93.5167, 83.5056
99.5056, 68.4833, 102, 99.0111
68, 74, 58, 72.9889
54.9889, 60.5278, 37.9889, 47.5056
44.5056, 37.9889, 43.5056, 28
23.5056, 35.4944, 30.5056, 29
18, 11, 12.9889, 30.5056
26.5056, 14, 14, 11
16, 13, 16, 21
21, 26.4944, 39, 53.9889
53.5056, 69.5056, 53.5056, 66
48.4944, 68, 101.494, 84.5056
102.989, 88.0111, 84.5056, 92.4833
113.011, 147.989, 114.506, 129.494
163.506, 149, 159.978, 136.033
165.494, 192.978, 179.011, 180.978
165.528, 186.494, 180.494, 170.011
147.989, 175.989, 164, 204.011
140.506, 157.472, 164.517, 180
171.022, 131.989, 133, 127.011
116.483, 104.517, 115.506, 114.989
79, 97, 78.9889, 71.0222
76, 65.4944, 57.5056, 26.9889
39.0111, 39.4833, 48.0111, 25.5056
31, 41.9889, 31.0111, 34
36.4833, 42, 39.5167, 43.4944
51.9778, 42.5278, 64, 90.4944
98.5056, 99.9889, 121.494, 110.506
121, 154.494, 158.011, 172
199.494, 207.989, 202, 227.011
248.483, 261.506, 294.494, 298.494
316.989, 318.506, 359.967, 314.55
327.989, 380.483, 380.011, 401.989
407.494, 390.011, 380.506, 406.989
405.011, 398.506, 382.494, 389.011
409, 351.483, 371.022, 359.483
369.517, 336.011, 343.967, 301.517
315, 259.978, 288.506, 234.033
251.989, 184.011, 181.989, 164.517
164, 128.506, 111.483, 101.506
87, 108.506, 57, 67.5056
49, 30.4944, 59, 52.4944
55, 66.0111, 107.494, 112
103, 128.989, 134.494, 173
232, 313, 287, 334.461
376.022, 467.439, 515.539, 622.978
622.528, 689.483, 792.483, 782
897.461, 984.461, 1087.54, 1182.02
1207.97, 1250.48, 1336.47, 1502.02
1624.41, 1611.02, 1801.53, 1886.53
1870.96, 1966.52, 2084.45, 2111.02
2225.93, 2304.51, 2194.54, 2399.52
2440.98, 2485.49, 2514.02, 2543
2575.51, 2541.96, 2546.96, 2746.55
2589.98, 2793.97, 2654.07, 2649.48
2632.96, 2613.06, 2517.54, 2514.46
2537.47, 2462.57, 2315.98, 2266.45
2293.55, 2163.01, 1969.99, 2012.02
1842.02, 1810.48, 1718.54, 1622.02
1495.53, 1450.01, 1258.55, 1077.41
1084.07, 936, 885.989, 850.011
809.967, 898.528, 981.044, 1235.92
1514.91, 2149, 3034.9, 4286.57
6629.27, 10454.9, 16634.7, 26130
42044.3, 72397.1, 163220, 1228988.9
4705334, 6690393.5, 8725066, 15133646
26950144, 22282796, 13088360, 7955903
5644434, 1307357.8, 449555, 273563
192339, 135432, 103018, 83077.4
69995.9, 60910.1, 53897.2, 48828.9
44742.9, 41091.1, 38552.9, 36022
34330.1, 32593.2, 31005.8, 29771.8
28089.6, 27302.2, 26297.8, 25472.5
24410.5, 23528, 22845.7, 21906.3
21091, 20578.9, 19970.8, 19318.3
18713.1, 17912.9, 17416.4, 16862.5
16320.5, 15784.6, 15011, 14586.8
14091.5, 13548.6, 13068.5, 12434.6
12098.9, 11379.7, 11126.6, 10631.5
10006.1, 9580.13, 9237.02, 8705.58
8100.04, 7942.17, 7393.43, 7113.64
6434.97, 6140.56, 5659.48, 5398.9
5138.71, 4690.09, 4370.97, 3939.62
3669.42, 3351.07, 3059.04, 2910.99
2539.02, 2375.1, 2106.94, 1856.58
1660.96, 1436.59, 1282.48, 1081
1008.04, 895.494, 705.044, 634.494
481.494, 427.528, 346.989, 272.528
220.506, 172.483, 141.022, 134.506
104, 98.9889, 89.5056, 113
113.506, 132.989, 185.989, 173.011
236.494, 239.967, 305.539, 342.956
391.022, 437.472, 491.989, 542.033
526.472, 614.506, 673.506, 680.506
707.967, 799.011, 833.494, 874.494
929.944, 1016.02, 917.517, 938.044
1062.93, 955, 1024.48, 1038.52
974.506, 1078.51, 1075.53, 1019.46
1064.02, 1057.94, 1059.03, 984.033
882.022, 942.506, 956.483, 881.494
841.011, 784.494, 809.494, 815
761.494, 686.011, 662.483, 648.561
604.483, 548.494, 509.517, 511.978
450.528, 411.494, 369.011, 353.011
264.517, 276.978, 241.528, 228.494
211.483, 160.517, 150.989, 135.011
123.989, 83.5056, 90.9889, 82.5056
56.0111, 75.5056, 57.4944, 56.4944
40, 34.0111, 42, 29
36, 37.4833, 38.5167, 46.4944
48.5056, 62.4944, 66.4833, 81.0111
94, 94.9778, 92.5278, 112.989
119.494, 120.011, 119.506, 121.494
158.483, 182.011, 150.494, 184.989
203.506, 162.517, 195.967, 188.539
186.989, 180.494, 212, 219.022
199.461, 170.528, 175.989, 157.506
159.978, 169.011, 183.011, 173
152.506, 172.011, 158.472, 146.022
138, 144, 107.494, 96.4833
127, 135.011, 132.517, 109
69.9667, 70.5167, 80.4944, 50.0222
54.9889, 51.0111, 44.9889, 35.0111
35.4944, 22.5056, 31.4944, 15.5056
20.4944, 32.5056, 27, 29
21, 27, 32.4944, 23
24.5056, 19.4944, 20.5056, 24
32, 30, 26, 39
33.9889, 29.5056, 53, 42
50.5056, 50.4833, 61.0111, 60.4944
54.4944, 43.5167, 79.9778, 64.0222
72.4944, 65.5056, 60.4833, 70.5056
57, 78.5056, 73.9889, 88.5167
76, 63.4833, 83.4944, 83.0222
63.9889, 72.5056, 92.5056, 74.4944
81.5056, 68.9889, 54, 37.0111
62.4944, 49, 55.5056, 46.4833
43.5167, 53.9889, 40, 38.0111
36.4944, 26.5056, 37.4944, 35.5056
33.4944, 22.5056, 30, 20
32, 21.4833, 32.0111, 6.50555
19, 17.9889, 33.0111, 15
19, 18, 3, 17
13, 8, 11.4944, 13.5056
12.4944, 10.5056, 11, 16
6, 21, 11, 11
20, 21.4944, 14, 21
22.4944, 23.0111, 21.4944, 13.5056
22, 29, 26.4944, 39.4944
27.5056, 42.5056, 35.4944, 30.5056
21, 26, 20.4833, 25.5167
29.4944, 32.5056, 20, 21.4944
27, 31.4944, 20.0111, 9
15.4833, 32.5167, 27, 11
23, 10, 8.49445, 17.5056
7.49445, 21.5056, 10, 13.9889
38.5056, 10.5056, 5.49445, 12.5056
17, 16, 7, 12
14, 7, 9, 9
8, 4, 21.4944, 6.50555
7, 8, 12, 10
8, 4, 12, 14
9, 13, 6, 13
10.4944, 11.5056, 14, 10.4944
4.50555, 9, 16, 15
16.4944, 21, 13.5056, 11
14, 2, 6, 19
13.4944, 23.5056, 19, 13
7.49445, 14.5056, 18, 14
9, 18, 16, 3
11, 5, 8, 8
16, 7, 13, 15
10.4944, 5.50555, 9, 15
11, 0.000000, 8, 5
5.49445, 3.50555, 10, 0.000000
2, 12, 2, 5
7, 4, 3, 4
14, 7, 0.000000, 14
0.000000, 5, 4, 9
11, 8, 7, 9
2, 0.000000, 8, 13.4944
9.50555, 7, 3, 5
7, 3.98889, 8.01111, 2
9, 9, 10.4944, 9.50555
0.000000, 3, 3, 7.49445
2.50555, 12, 5, 9
3, 3, 4, 5
0.000000, 5, 4, 0.000000
7, 5, 11, 0.494446
1.50555, 0.000000, 9, 5
4, 2, 58, 7
7, 4.49445, 6, 7.49445
6.01111, 5, 7, 8
6, 4, 9, 3
2, 10.4944, 9.50555, 7
0.000000, 3.49445, 7.50555, 0.000000
4, 8, 4, 3
3, 4.49445, 4.50555, 2
5, 0.000000, 9, 10
7, 0.000000, 6.49445, 12.5056
4, 16, 0.000000, 11
2, 9, 1, 2
6, 0.000000, 10, 7
4, 2, 2, 3.49445
10.5056
*END

*EOF