File: XRD:XRR/LCO/22157b_LCOT/22157b_LCOT_XRD_2-Theta_Omega.asc
*TYPE		=  Raw
*CLASS		=  ASCII CLASS
*SAMPLE		=
*COMMENT	=
*FNAME		=  22157b_LCOT_XRD_2-Theta_Omega.asc
*DATE		=  08-Nov-22 17:19

*GROUP_COUNT	=  1
*GONIO		=  SmartLab(In-plane), 0.000000
*ATTACHMENT	=  Z-Phi Stage
*ASC		=  0, 0, 0.000000, 0.000000
*I_MONOCHRO	=  Ge(220)x2, 0.000000
*FILTER		=  None
*C_MONOCHRO	=  None, 0.000000
*SLIT_NAME	=  0, Incident slit
*SLIT_NAME	=  1, Receiving slit # 1
*SLIT_NAME	=  2, Receiving slit # 2
*COUNTER	=  D/teX Ultra 250, 0
*POS_FORMAT	=  0
*SCAN_AXIS	=  2Theta/Omega
*MEAS_MODE	=  Continuous Scanning
*TARGET		=  29
*XRAY_CHAR	=  K-ALPHA1
*WAVE_LENGTH1	=  1.54059
*WAVE_LENGTH2	=  1.54441
*THICKNESS	=  0, 0.000000
*MU		=  0, 0.000000
*SCAN_MODE	=  2Theta/Omega
*SPEED_DIM	=  sec./step
*XUNIT		=  deg.
*YUNIT		=  counts
*SCALE_MODE	=  1
*REP_COUNT	=  0
*SE_COUNT	=  0
*STD_MATERIAL	=  Unknown, Unknown, 0.000000, 0.000000, 0.000000, 0.000000, 0.000000, 0.000000
*LATT_CONS	=  0, Unknown, Unknown, 0.000000, 0.000000, 0.000000, 0.000000, 0.000000, 0.000000
*SEC_COUNT	=  1
*TSPEC_SIZE	=  0
*EXTRA_SIZE	=  0
*MEMO		=

*BEGIN
*GROUP		=  0
*START		=  42
*STOP		=  52
*STEP		=  0.01
*OFFSET		=  0.1044
*SPEED		=  23.9588
*SLIT_SPEC	=  0, 0.400mm, 0.4, 0.000000
*SLIT_SPEC	=  1, 0.400mm, 0.4, 0.000000
*SLIT_SPEC	=  2, 0.400mm, 0.4, 0.000000
*KV		=  40
*MA		=  30
*LOW		=  0.000000
*HIGH		=  0.000000
*CTEMPER	=  0, 0.000000
*CTEMPER	=  1, 0.000000
*CTEMPER	=  2, 0.000000
*PAREX		=  0, 0.000000
*PAREX		=  1, 0.000000
*PAREX		=  2, 0.000000
*PAREX		=  3, 0.000000
*PAREX		=  4, 0.000000
*PAREX		=  5, 0.000000
*PAREX		=  6, 0.000000
*PAREX		=  7, 0.000000
*PAREX		=  8, 0.000000
*PAREX		=  9, 0.000000
*PAREX		=  10, 0.000000
*PAREX		=  11, 0.000000
*PAREX		=  12, 0.000000
*PAREX		=  13, 0.000000
*PAREX		=  14, 0.000000
*PAREX		=  15, 0.000000
*FULL_SCALE	=  2496035.5
*INDEX		=  0, 0, 0
*COUNT		=  1001
6, 4, 3, 3
9, 6, 9, 4
10, 0.000000, 9, 10
5.49445, 8, 8.50555, 9
5, 15, 11, 3
12, 13.4944, 16.5056, 15.4944
15.5056, 22, 8, 9.49445
4.50555, 9, 21, 6.98889
14.0111, 12.4944, 13.5056, 30
16, 28.4944, 16.5056, 15.4944
20.5056, 7, 6, 23
15.4944, 23.5056, 13.4944, 32.4944
26.5056, 12.5056, 22, 15
14.4944, 17.5056, 14.4944, 10
12.5056, 16, 15, 12
11, 5, 5, 13
14.4944, 11.5056, 17, 12.4944
8.50555, 7, 5, 5
9, 16, 3, 14
16.4944, 11.5056, 13, 7
11.4944, 8.50555, 5, 17.4944
6.50555, 7, 13, 13
25, 10.9889, 19.0111, 24
17, 16, 13, 15
26, 15, 37, 28.4944
32.5056, 19.4944, 23.5056, 24
30, 28.4944, 23, 39.4944
35, 47.5056, 24.5056, 32.4944
33, 35, 28.5056, 39.4833
24.5167, 29, 37.4944, 43.5056
36, 33, 31, 24
24, 33, 30.4944, 26.5056
21.4944, 30.5056, 29, 25.4944
19.5056, 15, 9, 14
10, 14, 8, 7
7.49445, 12.5056, 10, 10
16, 12, 15, 10
10, 23.4944, 12.5056, 13
9, 17, 11, 16
26.9889, 13.5056, 13.5056, 20.9889
25.0111, 23, 29.4944, 41.4944
34.5056, 25, 38.4944, 62.5056
43.5056, 65, 51.9889, 34.0111
40, 56, 41, 55.4944
51, 42.5056, 53.4944, 62.9889
45.0111, 43.4944, 63.0111, 41.4944
80.9778, 61.5167, 54.5056, 55.5056
49.4944, 31, 38.5056, 25.4944
58.5056, 35, 54.9889, 54
42.0111, 31.9889, 26.4944, 36.5167
26, 26, 33, 25.4944
19, 17.5056, 17, 22
5, 20, 25, 26
10, 16, 20, 20
23, 21, 10, 23.4944
22, 29, 32, 33
33.4944, 41.0111, 36, 39.9778
49.0222, 50.9889, 61, 54.5056
43.5056, 79.9889, 60.5056, 50.4944
86.9889, 68.5056, 95.4944, 69.5167
80, 95.5056, 86.4944, 102.989
124.506, 100, 124.989, 130.517
104, 109.483, 115, 131.517
123.483, 118.506, 132.506, 95.4944
108.494, 142, 104.494, 117.517
110.494, 87.4944, 102.011, 120
103, 83.5056, 75, 81.9889
80.0111, 71.4944, 86, 60.5056
60, 54, 47, 41.5056
47.4944, 52.5056, 34.4944, 48.9889
15.5167, 25, 28, 26.4944
26.5056, 35, 19, 29.4944
28.9889, 36, 21.5167, 32.4944
38, 46.5056, 59, 61
65, 76.4944, 89.4833, 85
109.022, 101.483, 113.011, 108.483
130.506, 126.517, 140.978, 174
153.011, 166.989, 246.989, 164.022
194.978, 220, 244.033, 221.483
219.989, 228.022, 255.472, 223
273, 258.517, 261.989, 280
306.483, 293.011, 267, 248
270.483, 266.539, 268.483, 222.494
266.022, 235.483, 257.989, 201.011
214.517, 220.483, 199.517, 195
182.494, 201.472, 138.539, 156
129, 131, 108, 88
109.989, 99.0111, 84, 77.5056
78, 62.9889, 89, 72.5056
114.506, 84.9778, 105.483, 107.022
116, 165.506, 159.506, 190.978
201, 221.011, 272.494, 257.494
308, 323.517, 373.967, 377.483
429.022, 469.506, 583.989, 617.472
621.022, 745.472, 754.506, 794.472
856.483, 1005.48, 974.056, 1063.42
1259.51, 1199.08, 1264.9, 1368.54
1391.52, 1457.44, 1535.02, 1586.94
1670.04, 1814.46, 1836.04, 1893.97
1919.91, 2108.57, 2058.53, 2115.45
2195.98, 2112.52, 2190.01, 2307.97
2410.49, 2318.55, 2373.39, 2452.09
2416.39, 2400.12, 2417.46, 2525.47
2477.02, 2518.48, 2604.51, 2504.51
2523.98, 2431.55, 2375.48, 2358
2367.06, 2321.49, 2262.46, 2189.56
2217.88, 2193.12, 2170.97, 2175.02
2161.46, 2165.98, 2298.48, 2343.45
2645.06, 2986.41, 3834.94, 5275.29
7600.67, 12343.2, 21831.5, 42857.6
79237.4, 132337, 203165, 314036
505219, 818579, 1353428.9, 1947150.4
2366741, 3774583.8, 14588482, 11606416
23210682, 35778048, 4834167.5, 1066847.4
474804, 278348, 190487, 135107
99147.3, 79287.3, 67885.6, 58985
53124.7, 47822.4, 43860, 40088.8
37647.4, 34952.5, 32997.7, 31558.6
29707.9, 28562.8, 27204.5, 26047.2
24665.5, 23954.7, 23064.7, 22363.9
21466.6, 20681.1, 19913.3, 19521.3
18952.2, 18336.4, 17615.2, 17174.2
16477.5, 15960.6, 15636.9, 15104.7
14666.4, 13964.6, 13763.1, 13040.5
12878.8, 12219.9, 11840.1, 11407.6
11192.3, 10832.2, 10267.2, 9711.48
9501.11, 9154.97, 8757.54, 8386.12
7967.94, 7555.09, 7233.43, 6895.02
6580.69, 6140.42, 5824.55, 5511.06
5146.06, 4910.51, 4501.59, 4423.58
4039.94, 3845.58, 3560.06, 3228.49
3044.94, 2775.02, 2515.54, 2363.06
2162.47, 1942.1, 1755.01, 1625
1408.98, 1270.54, 1181.99, 1092.03
931.494, 857.494, 678.528, 578.539
543.011, 424.494, 386.506, 373.506
299.978, 238.044, 192.494, 183.517
145.494, 146.989, 113.517, 92
126.494, 103.483, 133.506, 118.506
162, 224.506, 192.989, 225.989
233.506, 261.517, 260.989, 299.483
356.011, 308.506, 379.978, 460.483
457.517, 521.494, 493.011, 553.978
497.022, 536, 562.989, 626.011
598.428, 582.033, 591.956, 607.067
668.494, 709.472, 645.022, 650.483
670.056, 693.417, 601.572, 637.956
637.506, 625.033, 609.494, 552.978
594.022, 543.494, 552, 453.989
458.044, 444.989, 499.506, 456.967
430, 362.022, 387.022, 317.483
303.011, 296.989, 267.517, 276.483
235.528, 224.494, 192.989, 188.517
154.978, 152.528, 123.483, 125.494
117.011, 74.9889, 62.0111, 63.4833
55.5278, 40.9778, 42.0222, 41
42.9889, 50.0111, 39.9889, 46.0111
26.4944, 30.4944, 29, 38.5056
39.5056, 47.4944, 46.5056, 69
51.4944, 66.9889, 62.5167, 76.4944
92.9889, 84.5056, 102, 112.011
101, 106.989, 126.483, 131.528
127.494, 133.989, 138.506, 117.494
147, 163.494, 181.506, 137.494
147.494, 130.011, 161.506, 151
171, 155.483, 142.528, 159
140.978, 131.011, 127.494, 151
125.517, 132.978, 112.517, 115.989
96, 122, 114.506, 98.0111
92, 69.4944, 89, 63
59.5056, 45, 50, 49.9889
47.5056, 32.4944, 37, 37.5056
46.5056, 26.4944, 16.5056, 16
14, 19, 10, 22
29, 15, 26.4944, 28.5056
21, 24.4944, 34.4944, 21.0111
30, 23, 38, 29.4944
35.5056, 24, 16, 41.4833
45.5167, 37, 22, 47.4944
20.5056, 34, 44.4944, 63
59.4944, 40.5056, 56, 47.5056
22.9889, 54.5056, 52, 46.5056
50, 54, 37, 63.4944
52.4944, 69.9889, 49.0222, 48.9889
47.5056, 37.5056, 50.4944, 32.5056
49.4944, 44.4833, 32.5167, 30.4944
41, 44, 25.0111, 30.4944
15.5056, 29, 31.4944, 30.5056
22, 35.4944, 24.5056, 23.4944
19, 20.5056, 14.9889, 12.0111
19, 10, 14, 12
14, 9, 14.4944, 5.50555
9.49445, 13.5056, 5, 9
6, 14, 17, 11
8, 14, 15, 22.4944
8.50555, 16, 11, 17
20, 27, 32, 26
26, 15, 32, 20.9889
25.0111, 15, 24, 13
22.4944, 25.5056, 24.4944, 30.5056
21, 21, 22, 18.4944
9.50555, 29.4944, 18.5056, 23
27.9889, 31.5056, 13.5056, 23
12, 16, 17, 7
26.4944, 21, 11.5056, 12
11, 12, 20, 10.4944
7.50555, 6, 17, 3
15, 5, 8, 7
13.4944, 11.5056, 30.4944, 9.50555
5, 9, 16, 7
3, 5.98889, 14.0111, 6
11, 8, 9, 8
5, 10, 14.4944, 14.5056
4, 14, 13, 11.4944
11.5056, 18, 13.4944, 13.5056
12, 8, 10, 14
10, 8, 12, 13
4, 9, 6, 11
13, 14, 18, 16
4, 13, 9.49445, 19.5056
4, 10, 3, 7
14, 9, 10, 13
11.4944, 7.50555, 6, 2
2, 20, 9, 4
12, 3, 9, 7
7, 7.49445, 7.50555, 8
12, 15, 4, 5
5.49445, 11.5056, 4, 4
3, 7, 4, 5
7, 9, 3, 2
10, 10, 2, 15
12, 4, 8, 12
7.49445, 7.50555, 9, 5
7.97778, 9.02222, 5, 6
7, 7, 8, 3
6, 8, 3, 6.49445
15.5056, 0.000000, 0.000000, 3.49445
7.50555, 8, 8.49445, 10.5056
6.49445, 1.50555, 4, 6
5.49445, 7.50555, 11.4944, 10.5056
0.000000, 0.000000, 7, 12
8, 7, 9, 2
2, 9.49445, 4, 4.50555
8, 9, 0.000000, 1
9.49445, 7.50555, 3, 7
3, 6, 2, 6
2, 0.494446, 3.50555, 5
7, 3, 7, 12.4944
8.50555, 6, 8.49445, 3.50555
6, 17.4944, 10.5056, 0.000000
0.000000
*END

*EOF