File: XRD:XRR/LCO/22157b_LCOT/22157b_LCOT_XRR_2-Theta_Omega.asc
*TYPE		=  Raw
*CLASS		=  ASCII CLASS
*SAMPLE		=
*COMMENT	=
*FNAME		=  22157b_LCOT_XRR_2-Theta_Omega.asc
*DATE		=  08-Nov-22 18:14

*GROUP_COUNT	=  1
*GONIO		=  SmartLab(In-plane), 0.000000
*ATTACHMENT	=  Z-Phi Stage
*ASC		=  0, 0, 0.000000, 0.000000
*I_MONOCHRO	=  Ge(220)x2, 0.000000
*FILTER		=  None
*C_MONOCHRO	=  None, 0.000000
*SLIT_NAME	=  0, Incident slit
*SLIT_NAME	=  1, Receiving slit # 1
*SLIT_NAME	=  2, Receiving slit # 2
*COUNTER	=  D/teX Ultra 250, 0
*POS_FORMAT	=  0
*SCAN_AXIS	=  2Theta/Omega
*MEAS_MODE	=  Continuous Scanning
*TARGET		=  29
*XRAY_CHAR	=  K-ALPHA1
*WAVE_LENGTH1	=  1.54059
*WAVE_LENGTH2	=  1.54441
*THICKNESS	=  0, 0.000000
*MU		=  0, 0.000000
*SCAN_MODE	=  2Theta/Omega
*SPEED_DIM	=  sec./step
*XUNIT		=  deg.
*YUNIT		=  counts
*SCALE_MODE	=  1
*REP_COUNT	=  0
*SE_COUNT	=  0
*STD_MATERIAL	=  Unknown, Unknown, 0.000000, 0.000000, 0.000000, 0.000000, 0.000000, 0.000000
*LATT_CONS	=  0, Unknown, Unknown, 0.000000, 0.000000, 0.000000, 0.000000, 0.000000, 0.000000
*SEC_COUNT	=  1
*TSPEC_SIZE	=  0
*EXTRA_SIZE	=  0
*MEMO		=

*BEGIN
*GROUP		=  0
*START		=  0.4
*STOP		=  4.5
*STEP		=  0.01
*OFFSET		=  -0.009900
*SPEED		=  5.95853
*SLIT_SPEC	=  0, 1.000mm, 1, 0.000000
*SLIT_SPEC	=  1, 1.000mm, 1, 0.000000
*SLIT_SPEC	=  2, 1.000mm, 1, 0.000000
*KV		=  40
*MA		=  30
*LOW		=  0.000000
*HIGH		=  0.000000
*CTEMPER	=  0, 0.000000
*CTEMPER	=  1, 0.000000
*CTEMPER	=  2, 0.000000
*PAREX		=  0, 0.000000
*PAREX		=  1, 0.000000
*PAREX		=  2, 0.000000
*PAREX		=  3, 0.000000
*PAREX		=  4, 0.000000
*PAREX		=  5, 0.000000
*PAREX		=  6, 0.000000
*PAREX		=  7, 0.000000
*PAREX		=  8, 0.000000
*PAREX		=  9, 0.000000
*PAREX		=  10, 0.000000
*PAREX		=  11, 0.000000
*PAREX		=  12, 0.000000
*PAREX		=  13, 0.000000
*PAREX		=  14, 0.000000
*PAREX		=  15, 0.000000
*FULL_SCALE	=  169512
*INDEX		=  0, 0, 0
*COUNT		=  411
618790, 633518, 650955, 662172
680400, 690717, 705688, 718241
730855, 743085, 755802, 768444
777718, 786251, 793573, 802911
809913, 813891, 818118, 821254
822108, 820925, 819285, 814874
806268, 797295, 784017, 767472
748090, 719883, 690889, 660812
631326, 601552, 569443, 537114
506853, 474085, 441807, 409534
378905, 348005, 317492, 288219
261362, 233611, 208868, 186160
164301, 145447, 127642, 111507
97551, 85497.5, 75259, 65774
58245.5, 51751.5, 46717, 42110.5
38840, 36276.5, 34346.5, 33159
31420.5, 30841, 30615.5, 30396.5
30071, 30418.5, 30644.5, 30381
30855, 30647, 30459.5, 30372
30124.5, 29173, 28895.5, 28657.5
27747, 27177, 26139.5, 25124.5
24270.5, 23540.5, 21902.5, 20972
19832.5, 19100, 17608, 16410
15552, 14227.5, 13414.5, 12102
11275, 10733.5, 9566, 8745
7874.5, 7412.5, 6685, 6069
5762, 5349.5, 4805, 4522.5
4263, 4021.5, 3931.5, 3770
3760.5, 3662, 3655, 3582.5
3511, 3685, 3870.5, 3747
3864, 4026, 4088, 4271.5
4246.5, 4376.5, 4416.5, 4412.5
4618.5, 4387, 4438.5, 4652
4550, 4437.5, 4426.5, 4299.5
4278.5, 4230, 4125, 4014.5
3887, 3820.5, 3555, 3396.5
3280, 3164, 2985, 2908.5
2662.5, 2544.5, 2334.5, 2196
2111.5, 1920.5, 1739, 1738
1563, 1459, 1395, 1268
1152.5, 1101, 1011.5, 1015
912.501, 832, 841.501, 826.999
771, 789.5, 680, 760.5
788, 766, 752, 795.5
795, 872, 917.5, 933.5
951, 938.5, 986.5, 936
1018.5, 1018.5, 1093.5, 1109
1105.5, 1153.5, 1191, 1135
1159.5, 1123.5, 1153.5, 1108
1153.5, 1072.5, 1016.5, 1015
989.5, 1012.5, 1023.5, 996.5
922, 875, 832, 780.5
781.5, 720, 775.5, 661.001
626, 564.5, 535, 479
498, 483.5, 457.5, 406.5
397.5, 407, 338, 342
352.5, 329.5, 331, 262.5
278, 290, 281, 314
278.5, 294.5, 329.5, 327
294, 330, 354, 344
347.5, 354.5, 401.5, 332.5
432, 400.5, 402, 417.5
430.5, 408, 461.5, 429
466.5, 407, 436.5, 422.5
479, 421, 433.5, 425
447.5, 448, 442.5, 375
390, 364.5, 387, 339
358, 307, 329, 289
309, 246.5, 279, 285.5
259.5, 250, 224, 197.5
197, 173.5, 172.5, 216
171.5, 166.5, 190.5, 186
191.5, 173, 161.5, 178.5
209, 188, 185, 165.5
192, 190.5, 187.5, 190.5
196.5, 217.5, 250, 219.5
192, 209.5, 253, 209
245.5, 228.5, 226.5, 228
241, 209, 241.5, 275
223, 271.5, 213.5, 234.5
241, 257, 201, 217.5
223, 207.5, 205, 207.5
177.5, 178, 182.5, 153.5
151, 180.5, 135.5, 145
131.5, 164.5, 138.5, 119.5
138, 141.5, 122, 111.5
156.5, 124, 114.5, 122.5
128.5, 108.5, 132.5, 142.5
103, 108, 129, 122
151, 125.5, 113.5, 145.5
113, 136.5, 118.5, 109.5
133, 140, 118.5, 143.5
148, 159.5, 143, 139.5
129, 179, 155.5, 173
153, 115.5, 145.5, 143
127, 140, 108, 122
153, 155.5, 124.5, 111
115, 124.5, 112, 115
126, 134, 109.5, 126
109, 115, 121, 113
122, 81.5001, 68.5001, 102
82, 103.5, 99.4999, 95
95.4998, 90.0002, 101.5
*END

*EOF