File: XRD:XRR/LCO/22157b_LCOT/22157b_LCOT_XRD.csv
#twotheta, yobs, ycal, bkg, diff
42.0,6.0,1.0,1.0,1.0
42.04,9.0,1.0,1.0,1.0
42.08,10.0,1.0,1.0,1.0
42.12,5.4944,1.0,1.0,1.0
42.16,5.0,1.0,1.0,1.0
42.2,12.0,1.0,1.0,1.0
42.24,15.5056,1.0,1.0,1.0
42.28,4.5056,1.0,1.0,1.0
42.32,14.0111,1.0,1.0,1.0
42.36,16.0,1.0,1.0,1.0
42.4,20.5056,1.0,1.0,1.0
42.44,15.4944,1.0,1.0,1.0
42.48,26.5056,1.0,1.0,1.0
42.52,14.4944,1.0,1.0,1.0
42.56,12.5056,1.0,1.0,1.0
42.6,11.0,1.0,1.0,1.0
42.64,14.4944,1.0,1.0,1.0
42.68,8.5056,1.0,1.0,1.0
42.72,9.0,1.0,1.0,1.0
42.76,16.4944,1.0,1.0,1.0
42.8,11.4944,1.0,1.0,1.0
42.84,6.5056,1.0,1.0,1.0
42.88,25.0,1.0,1.0,1.0
42.92,17.0,1.0,1.0,1.0
42.96,26.0,1.0,1.0,1.0
43.0,32.5056,1.0,1.0,1.0
43.04,30.0,1.0,1.0,1.0
43.08,35.0,1.0,1.0,1.0
43.12,33.0,1.0,1.0,1.0
43.16,24.5167,1.0,1.0,1.0
43.2,36.0,1.0,1.0,1.0
43.24,24.0,1.0,1.0,1.0
43.28,21.4944,1.0,1.0,1.0
43.32,19.5056,1.0,1.0,1.0
43.36,10.0,1.0,1.0,1.0
43.4,7.4944,1.0,1.0,1.0
43.44,16.0,1.0,1.0,1.0
43.48,10.0,1.0,1.0,1.0
43.52,9.0,1.0,1.0,1.0
43.56,26.9889,1.0,1.0,1.0
43.6,25.0111,1.0,1.0,1.0
43.64,34.5056,1.0,1.0,1.0
43.68,43.5056,1.0,1.0,1.0
43.72,40.0,1.0,1.0,1.0
43.76,51.0,1.0,1.0,1.0
43.8,45.0111,1.0,1.0,1.0
43.84,80.9778,1.0,1.0,1.0
43.88,49.4944,1.0,1.0,1.0
43.92,58.5056,1.0,1.0,1.0
43.96,42.0111,1.0,1.0,1.0
44.0,26.0,1.0,1.0,1.0
44.04,19.0,1.0,1.0,1.0
44.08,5.0,1.0,1.0,1.0
44.12,10.0,1.0,1.0,1.0
44.16,23.0,1.0,1.0,1.0
44.2,22.0,1.0,1.0,1.0
44.24,33.4944,1.0,1.0,1.0
44.28,49.0222,1.0,1.0,1.0
44.32,43.5056,1.0,1.0,1.0
44.36,86.9889,1.0,1.0,1.0
44.4,80.0,1.0,1.0,1.0
44.44,124.5056,1.0,1.0,1.0
44.48,104.0,1.0,1.0,1.0
44.52,123.4833,1.0,1.0,1.0
44.56,108.4944,1.0,1.0,1.0
44.6,110.4944,1.0,1.0,1.0
44.64,103.0,1.0,1.0,1.0
44.68,80.0111,1.0,1.0,1.0
44.72,60.0,1.0,1.0,1.0
44.76,47.4944,1.0,1.0,1.0
44.8,15.5167,1.0,1.0,1.0
44.84,26.5056,1.0,1.0,1.0
44.88,28.9889,1.0,1.0,1.0
44.92,38.0,1.0,1.0,1.0
44.96,65.0,1.0,1.0,1.0
45.0,109.0222,1.0,1.0,1.0
45.04,130.5056,1.0,1.0,1.0
45.08,153.0111,1.0,1.0,1.0
45.12,194.9778,1.0,1.0,1.0
45.16,219.9889,1.0,1.0,1.0
45.2,273.0,1.0,1.0,1.0
45.24,306.4833,1.0,1.0,1.0
45.28,270.4833,1.0,1.0,1.0
45.32,266.0222,1.0,1.0,1.0
45.36,214.5167,1.0,1.0,1.0
45.4,182.4944,1.0,1.0,1.0
45.44,129.0,1.0,1.0,1.0
45.48,109.9889,1.0,1.0,1.0
45.52,78.0,1.0,1.0,1.0
45.56,114.5056,1.0,1.0,1.0
45.6,116.0,1.0,1.0,1.0
45.64,201.0,1.0,1.0,1.0
45.68,308.0,1.0,1.0,1.0
45.72,429.0222,1.0,1.0,1.0
45.76,621.0222,1.0,1.0,1.0
45.8,856.4833,1.0,1.0,1.0
45.84,1259.51,1.0,1.0,1.0
45.88,1391.52,1.0,1.0,1.0
45.92,1670.04,1.0,1.0,1.0
45.96,1919.91,1.0,1.0,1.0
46.0,2195.98,1.0,1.0,1.0
46.04,2410.49,1.0,1.0,1.0
46.08,2416.39,1.0,1.0,1.0
46.12,2477.02,1.0,1.0,1.0
46.16,2523.98,1.0,1.0,1.0
46.2,2367.06,1.0,1.0,1.0
46.24,2217.88,1.0,1.0,1.0
46.28,2161.46,1.0,1.0,1.0
46.32,2645.06,1.0,1.0,1.0
46.36,7600.67,1.0,1.0,1.0
46.4,79237.4,1.0,1.0,1.0
46.44,505219,1.0,1.0,1.0
46.48,2366741.0,1.0,1.0,1.0
46.52,23210682.0,1.0,1.0,1.0
46.56,474803.625,1.0,1.0,1.0
46.6,99147.25,1.0,1.0,1.0
46.64,53124.7,1.0,1.0,1.0
46.68,37647.4,1.0,1.0,1.0
46.72,29707.873,1.0,1.0,1.0
46.76,24665.5,1.0,1.0,1.0
46.8,21466.6,1.0,1.0,1.0
46.84,18952.2,1.0,1.0,1.0
46.88,16477.5,1.0,1.0,1.0
46.92,14666.4,1.0,1.0,1.0
46.96,12878.8,1.0,1.0,1.0
47.0,11192.3,1.0,1.0,1.0
47.04,9501.11,1.0,1.0,1.0
47.08,7967.94,1.0,1.0,1.0
47.12,6580.69,1.0,1.0,1.0
47.16,5146.06,1.0,1.0,1.0
47.2,4039.94,1.0,1.0,1.0
47.24,3044.94,1.0,1.0,1.0
47.28,2162.47,1.0,1.0,1.0
47.32,1408.98,1.0,1.0,1.0
47.36,931.4944,1.0,1.0,1.0
47.4,543.0111,1.0,1.0,1.0
47.44,299.9778,1.0,1.0,1.0
47.48,145.4944,1.0,1.0,1.0
47.52,126.4944,1.0,1.0,1.0
47.56,162.0,1.0,1.0,1.0
47.6,233.5056,1.0,1.0,1.0
47.64,356.0111,1.0,1.0,1.0
47.68,457.5167,1.0,1.0,1.0
47.72,497.0222,1.0,1.0,1.0
47.76,598.4278,1.0,1.0,1.0
47.8,668.4944,1.0,1.0,1.0
47.84,670.0555,1.0,1.0,1.0
47.88,637.5056,1.0,1.0,1.0
47.92,594.0222,1.0,1.0,1.0
47.96,458.0444,1.0,1.0,1.0
48.0,430.0,1.0,1.0,1.0
48.04,303.0111,1.0,1.0,1.0
48.08,235.5278,1.0,1.0,1.0
48.12,154.9778,1.0,1.0,1.0
48.16,117.0111,1.0,1.0,1.0
48.2,55.5278,1.0,1.0,1.0
48.24,42.9889,1.0,1.0,1.0
48.28,26.4944,1.0,1.0,1.0
48.32,39.5056,1.0,1.0,1.0
48.36,51.4944,1.0,1.0,1.0
48.4,92.9889,1.0,1.0,1.0
48.44,101.0,1.0,1.0,1.0
48.48,127.4944,1.0,1.0,1.0
48.52,147.0,1.0,1.0,1.0
48.56,147.4944,1.0,1.0,1.0
48.6,171.0,1.0,1.0,1.0
48.64,140.9778,1.0,1.0,1.0
48.68,125.5167,1.0,1.0,1.0
48.72,96.0,1.0,1.0,1.0
48.76,92.0,1.0,1.0,1.0
48.8,59.5056,1.0,1.0,1.0
48.84,47.5056,1.0,1.0,1.0
48.88,46.5056,1.0,1.0,1.0
48.92,14.0,1.0,1.0,1.0
48.96,29.0,1.0,1.0,1.0
49.0,21.0,1.0,1.0,1.0
49.04,30.0,1.0,1.0,1.0
49.08,35.5056,1.0,1.0,1.0
49.12,45.5167,1.0,1.0,1.0
49.16,20.5056,1.0,1.0,1.0
49.2,59.4944,1.0,1.0,1.0
49.24,22.9889,1.0,1.0,1.0
49.28,50.0,1.0,1.0,1.0
49.32,52.4944,1.0,1.0,1.0
49.36,47.5056,1.0,1.0,1.0
49.4,49.4944,1.0,1.0,1.0
49.44,41.0,1.0,1.0,1.0
49.48,15.5056,1.0,1.0,1.0
49.52,22.0,1.0,1.0,1.0
49.56,19.0,1.0,1.0,1.0
49.6,19.0,1.0,1.0,1.0
49.64,14.0,1.0,1.0,1.0
49.68,9.4944,1.0,1.0,1.0
49.72,6.0,1.0,1.0,1.0
49.76,8.0,1.0,1.0,1.0
49.8,8.5056,1.0,1.0,1.0
49.84,20.0,1.0,1.0,1.0
49.88,26.0,1.0,1.0,1.0
49.92,25.0111,1.0,1.0,1.0
49.96,22.4944,1.0,1.0,1.0
50.0,21.0,1.0,1.0,1.0
50.04,9.5056,1.0,1.0,1.0
50.08,27.9889,1.0,1.0,1.0
50.12,12.0,1.0,1.0,1.0
50.16,26.4944,1.0,1.0,1.0
50.2,11.0,1.0,1.0,1.0
50.24,7.5056,1.0,1.0,1.0
50.28,15.0,1.0,1.0,1.0
50.32,13.4944,1.0,1.0,1.0
50.36,5.0,1.0,1.0,1.0
50.4,3.0,1.0,1.0,1.0
50.44,11.0,1.0,1.0,1.0
50.48,5.0,1.0,1.0,1.0
50.52,4.0,1.0,1.0,1.0
50.56,11.5056,1.0,1.0,1.0
50.6,12.0,1.0,1.0,1.0
50.64,10.0,1.0,1.0,1.0
50.68,4.0,1.0,1.0,1.0
50.72,13.0,1.0,1.0,1.0
50.76,4.0,1.0,1.0,1.0
50.8,4.0,1.0,1.0,1.0
50.84,14.0,1.0,1.0,1.0
50.88,11.4944,1.0,1.0,1.0
50.92,2.0,1.0,1.0,1.0
50.96,12.0,1.0,1.0,1.0
51.0,7.0,1.0,1.0,1.0
51.04,12.0,1.0,1.0,1.0
51.08,5.4944,1.0,1.0,1.0
51.12,3.0,1.0,1.0,1.0
51.16,7.0,1.0,1.0,1.0
51.2,10.0,1.0,1.0,1.0
51.24,12.0,1.0,1.0,1.0
51.28,7.4944,1.0,1.0,1.0
51.32,7.9778,1.0,1.0,1.0
51.36,7.0,1.0,1.0,1.0
51.4,6.0,1.0,1.0,1.0
51.44,15.5056,1.0,1.0,1.0
51.48,7.5056,1.0,1.0,1.0
51.52,6.4944,1.0,1.0,1.0
51.56,5.4944,1.0,1.0,1.0
51.6,0.0,1.0,1.0,1.0
51.64,8.0,1.0,1.0,1.0
51.68,2.0,1.0,1.0,1.0
51.72,8.0,1.0,1.0,1.0
51.76,9.4944,1.0,1.0,1.0
51.8,3.0,1.0,1.0,1.0
51.84,2.0,1.0,1.0,1.0
51.88,7.0,1.0,1.0,1.0
51.92,8.5056,1.0,1.0,1.0
51.96,6.0,1.0,1.0,1.0
52.0,0.0,1.0,1.0,1.0