File: XRD:XRR/SCO/22169_SL(CO)L/22169_SL(CO)L_001_XRD_2-Theta_Omega.asc
*TYPE		=  Raw
*CLASS		=  ASCII CLASS
*SAMPLE		=
*COMMENT	=
*FNAME		=  22169_SL(CO)L_001_XRD_2-Theta_Omega.asc
*DATE		=  19-Dec-22 20:17

*GROUP_COUNT	=  1
*GONIO		=  SmartLab(In-plane), 0.000000
*ATTACHMENT	=  Z-Phi Stage
*ASC		=  0, 0, 0.000000, 0.000000
*I_MONOCHRO	=  Ge(220)x2, 0.000000
*FILTER		=  None
*C_MONOCHRO	=  None, 0.000000
*SLIT_NAME	=  0, Incident slit
*SLIT_NAME	=  1, Receiving slit # 1
*SLIT_NAME	=  2, Receiving slit # 2
*COUNTER	=  D/teX Ultra 250, 0
*POS_FORMAT	=  0
*SCAN_AXIS	=  2Theta/Omega
*MEAS_MODE	=  Continuous Scanning
*TARGET		=  29
*XRAY_CHAR	=  K-ALPHA1
*WAVE_LENGTH1	=  1.54059
*WAVE_LENGTH2	=  1.54441
*THICKNESS	=  0, 0.000000
*MU		=  0, 0.000000
*SCAN_MODE	=  2Theta/Omega
*SPEED_DIM	=  sec./step
*XUNIT		=  deg.
*YUNIT		=  counts
*SCALE_MODE	=  1
*REP_COUNT	=  0
*SE_COUNT	=  0
*STD_MATERIAL	=  Unknown, Unknown, 0.000000, 0.000000, 0.000000, 0.000000, 0.000000, 0.000000
*LATT_CONS	=  0, Unknown, Unknown, 0.000000, 0.000000, 0.000000, 0.000000, 0.000000, 0.000000
*SEC_COUNT	=  1
*TSPEC_SIZE	=  0
*EXTRA_SIZE	=  0
*MEMO		=

*BEGIN
*GROUP		=  0
*START		=  18
*STOP		=  28
*STEP		=  0.01
*OFFSET		=  0.038
*SPEED		=  23.9588
*SLIT_SPEC	=  0, 0.400mm, 0.4, 0.000000
*SLIT_SPEC	=  1, 0.400mm, 0.4, 0.000000
*SLIT_SPEC	=  2, 0.400mm, 0.4, 0.000000
*KV		=  40
*MA		=  30
*LOW		=  0.000000
*HIGH		=  0.000000
*CTEMPER	=  0, 0.000000
*CTEMPER	=  1, 0.000000
*CTEMPER	=  2, 0.000000
*PAREX		=  0, 0.000000
*PAREX		=  1, 0.000000
*PAREX		=  2, 0.000000
*PAREX		=  3, 0.000000
*PAREX		=  4, 0.000000
*PAREX		=  5, 0.000000
*PAREX		=  6, 0.000000
*PAREX		=  7, 0.000000
*PAREX		=  8, 0.000000
*PAREX		=  9, 0.000000
*PAREX		=  10, 0.000000
*PAREX		=  11, 0.000000
*PAREX		=  12, 0.000000
*PAREX		=  13, 0.000000
*PAREX		=  14, 0.000000
*PAREX		=  15, 0.000000
*FULL_SCALE	=  207707
*INDEX		=  0, 0, 0
*COUNT		=  1001
33, 66.496, 37.496, 54.504
41, 28.496, 52.504, 38
26.504, 47.496, 27.496, 40
50.008, 53.992, 39.504, 46
35, 32.496, 26, 48.504
33.504, 34.992, 39.504, 25
41, 50.008, 35.496, 36.992
38.504, 44.496, 29.5199, 44.4881
38.992, 48, 22.504, 37.496
31, 28.504, 34.496, 25
57.504, 43, 36.496, 43
27, 43, 29, 39
40.008, 35.992, 49.504, 39.504
37, 28.496, 30.504, 29.992
33, 39, 28.504, 19.496
28.504, 36, 41, 45
31, 43, 48.504, 32.496
57.496, 37.504, 46.504, 63
14.992, 40, 43, 33
26.504, 40.496, 29, 28.504
54.008, 40.496, 48, 43.496
33, 37.496, 46.0159, 89.9841
30, 36, 36, 26
42.504, 44.496, 27, 31
39, 40, 28, 38
34.5119, 42.4881, 37, 40
44, 32.504, 41.496, 45.504
39.496, 38, 38, 32
53.008, 52, 38.992, 25.504
41.008, 47.4881, 20.008, 39.504
40.992, 28.496, 54, 43.504
26, 45.504, 25.496, 41.504
48.992, 51, 32.504, 41
47.496, 55, 23.504, 37
32, 53, 37.504, 37.496
53.496, 47.504, 27, 40.496
44, 49, 36, 44.504
28, 33.496, 36.504, 48
31.496, 24.504, 32.504, 26.992
34, 45, 29.008, 38.992
25.504, 47.496, 50, 42
23.504, 23.496, 25.504, 33
32.496, 43.504, 30.496, 39.5119
36.4881, 47.5119, 38.496, 48.496
35.496, 33, 29.504, 41.496
39, 40.5119, 36.992, 22
35.504, 44.496, 36.496, 51.504
35.496, 22, 51, 63.504
31, 39, 43, 47.496
54.0239, 41.9761, 50.504, 59.504
63.504, 51.4881, 53.5119, 55.496
86, 66.504, 66.496, 45.992
49.504, 53, 59.504, 60
79.992, 63.008, 78.496, 76
60.008, 49.992, 82.008, 58.4881
68.504, 55.504, 54, 77
67.0159, 43.9761, 44, 61.5119
47.4881, 50, 53, 52
43, 50.008, 27.992, 60.504
26, 41.504, 50, 59.008
45.4881, 52, 47, 50.008
17.4881, 40.504, 52.504, 38.496
47.504, 34.992, 36.504, 24.496
39, 44.008, 30.496, 46.496
37.504, 42, 30.504, 41
39.992, 47.0159, 56.4881, 48.496
33, 33, 52, 42.008
53.992, 48.008, 34.992, 35
37, 16.504, 38.496, 49.008
33.504, 42.992, 40.504, 38.504
40.992, 32, 40.496, 51.504
58.496, 43, 50, 47.008
46.992, 34.008, 30.496, 45.496
55.008, 43.008, 38.4881, 41.008
46.4881, 56.5279, 36.4721, 46
33, 43.008, 42.992, 41
61.504, 47.496, 45, 30
40.008, 44, 53.992, 52
45, 63.008, 51, 85.496
69.504, 68.496, 67.496, 53.5119
84, 81.496, 73.504, 97.504
99.992, 85.008, 106.488, 104.512
100.496, 110.504, 103, 128.488
118, 119.008, 126, 110
118.496, 133, 156, 158.504
142, 158, 153, 160.496
178.496, 187, 174.512, 186
164.496, 163.016, 188.496, 204.984
152.52, 220.488, 180.496, 199
175.512, 174.488, 188, 174.992
167.512, 153, 173, 157.992
152.496, 137.008, 129.504, 114.504
138, 136.488, 120.992, 116.512
127, 142.992, 122.008, 124.504
135.496, 145.488, 140.504, 135.512
156, 152.008, 177.488, 217.504
188.512, 270, 256.008, 299.488
342, 394.528, 412.496, 439.488
484.016, 556.496, 575.032, 621.984
664.968, 718.512, 746.52, 738.496
849.008, 826.512, 856.472, 870.52
893.984, 908.512, 949.008, 921
901.504, 866.976, 862.016, 869
857.976, 849.512, 799.008, 748.976
783.496, 745.016, 713.008, 703.488
683, 685.488, 730.544, 637.984
667.472, 722.008, 617.976, 628.008
568.512, 561.488, 516.536, 524.488
513.992, 523.48, 520.496, 391.512
468.52, 428.976, 425.496, 422
393.024, 350.472, 330.008, 317.496
322.992, 256.016, 288.984, 255.512
271.984, 265, 247.496, 221.512
236, 273.52, 263.472, 293.008
309.512, 341.984, 367.008, 383.488
455.512, 485.496, 522.52, 660.504
700.52, 744.496, 894, 1020.02
1069.01, 1285.5, 1455.54, 1563
1746.02, 1923.04, 1933.96, 2125.54
2349.96, 2465.04, 2698.56, 2727.44
2835.6, 3008.98, 3114.98, 3355.02
3215.98, 3239.04, 3314.01, 3294.98
3346.08, 3243.9, 3260.01, 3164.94
3119.58, 2921.98, 2829.94, 2845.47
2715.51, 2694.51, 2566.46, 2424.08
2353.94, 2265.51, 2258, 2266.52
2231.95, 2089.02, 2194.47, 2120.51
2063, 2065.97, 2067.03, 2089.5
2149.46, 2106.52, 2105.55, 2252
2194.51, 2360.46, 2475.59, 2520.45
2661.58, 2741.94, 2822.56, 3086.46
3286.03, 3576.56, 3888.02, 4105.52
4688.58, 5189.63, 5950, 6914.45
8156.21, 9644.11, 11793.2, 15376.4
20980, 30688.5, 53637.8, 164611
1034072.7, 2942643.3, 4022080, 3752570.5
2443068.5, 1589418.9, 1444174, 854483
450745, 269748, 163684, 102353
68491.7, 45557.9, 30292.2, 21331.8
15423.5, 11014.3, 8312.83, 6474.89
4979.9, 4044.93, 3155.94, 2619.97
2266.97, 1947.96, 1717.52, 1603.5
1407.94, 1209, 1144.54, 970.992
988.952, 851.024, 821.488, 750.976
702.016, 651.016, 581.952, 549.528
517.992, 518.48, 477.992, 445.504
415.984, 384.016, 358.992, 374.504
313.984, 343.52, 294.504, 242.512
236.984, 268.992, 227.984, 239.008
250.016, 204, 207.488, 231.016
175.496, 174.496, 192.976, 179.016
188.504, 160.488, 184, 161.512
165.488, 154.496, 161.512, 150.016
132.48, 160.992, 141, 150
151.504, 153.992, 116.008, 134
100.504, 117, 100.992, 118.504
123.504, 96.992, 108.496, 79
87.5119, 70.992, 65, 75.504
90.992, 63.504, 84.008, 65.496
80.992, 71.008, 67.992, 62.504
58.008, 42.496, 63.496, 69
67.504, 52, 63.496, 52.496
58.504, 38.504, 61.992, 63.504
66.008, 77.504, 81.4881, 65
62, 80.008, 58.992, 65
65.504, 80.496, 73.496, 63.504
72, 72.496, 61.008, 78.496
60.496, 47.504, 56.496, 45.008
85.992, 55.008, 56.504, 42.4881
46.008, 58.496, 42.496, 59
41.504, 42.496, 40.008, 22.496
46.496, 32.504, 30, 24
48, 25.496, 24, 32
20, 23, 20, 23.504
31.504, 24.992, 17.008, 26.992
16, 33, 35, 31.008
28.992, 16, 29.504, 19.496
26, 30, 27, 19
28.504, 36.496, 21.504, 27.496
28, 28.504, 41.496, 28.008
36.992, 33.504, 29.504, 41.992
12, 35.5119, 20.4881, 24
22, 18.008, 17.992, 9
36, 41.504, 35, 20.496
19, 23, 26, 24.008
19.992, 50.008, 24.992, 32
26, 22.504, 16.504, 27.992
38.504, 26, 8.49602, 24.008
31, 17.992, 11.504, 14.496
23, 16, 16.504, 22.496
24.504, 31.496, 23.504, 17.496
27, 10, 6, 22.504
24.496, 25, 27.008, 26.496
20.496, 23, 23, 10
24, 23.504, 28.496, 25.504
32.504, 16.496, 25.496, 20
22.008, 22.992, 27.504, 15.496
27, 26, 22, 25
19, 27.008, 24.992, 33.504
23.496, 26, 9, 19
25.008, 28.992, 21, 22
20, 22.504, 30.496, 25
43.504, 20.496, 26, 28.008
25.496, 24.496, 18, 20.504
29.496, 27, 35, 30
23.504, 29.496, 16.504, 20.496
12.504, 24.496, 14.504, 18
20.496, 14.504, 11.496, 19
18, 20, 20, 8
21, 18, 25, 16
17.504, 31, 26.504, 14.992
24.008, 15.496, 25.496, 16
26.008, 21.496, 17.496, 20
17.504, 16.496, 16, 12
22, 22, 17, 22
20, 6, 21, 17
8, 68, 8, 18
29.008, 9.99203, 6, 21
19, 14, 25, 18
17, 5, 20, 8
22, 23.504, 12.496, 18
8, 21, 9.50398, 15.496
10, 22, 31, 15
13, 15, 21, 15
9, 10.008, 15.992, 20
17.504, 19.496, 4, 9
22.008, 17.992, 16, 15.504
24.496, 23, 20, 14
13, 14, 19.504, 19
14.496, 17, 14, 16
12, 9, 11.504, 21.496
15, 16.504, 22.504, 21.992
17, 17.504, 20.496, 26.504
28, 14.496, 11.5119, 24.4881
7, 8, 14, 15
9, 14.008, 8.99203, 17
9, 12, 13, 16
19, 12.008, 12.992, 13
26.504, 9, 15.496, 12.504
7.49602, 17.504, 22.496, 13
17.504, 22, 0.496017, 25
20.504, 14.496, 15, 19
5, 9.50398, 25, 17.496
16.504, 14, 13.496, 5
16, 5, 13.504, 23
12.496, 7, 7, 18
13.504, 4.49602, 10.504, 19.496
6, 9.50398, 7.49602, 28.504
20, 9.49602, 5, 13
25.008, 8.49602, 15.496, 14.504
23.504
*END

*EOF