File: XRD:XRR/SCO/22169_SL(CO)L/22169_SL(CO)L_001_XRD.csv
#twotheta, yobs, ycal, bkg, diff
18.0,33.0,1.0,1.0,1.0
18.04,41.0,1.0,1.0,1.0
18.08,26.504,1.0,1.0,1.0
18.12,50.008,1.0,1.0,1.0
18.16,35.0,1.0,1.0,1.0
18.2,33.504,1.0,1.0,1.0
18.24,41.0,1.0,1.0,1.0
18.28,38.504,1.0,1.0,1.0
18.32,38.992,1.0,1.0,1.0
18.36,31.0,1.0,1.0,1.0
18.4,57.504,1.0,1.0,1.0
18.44,27.0,1.0,1.0,1.0
18.48,40.008,1.0,1.0,1.0
18.52,37.0,1.0,1.0,1.0
18.56,33.0,1.0,1.0,1.0
18.6,28.504,1.0,1.0,1.0
18.64,31.0,1.0,1.0,1.0
18.68,57.496,1.0,1.0,1.0
18.72,14.992,1.0,1.0,1.0
18.76,26.504,1.0,1.0,1.0
18.8,54.008,1.0,1.0,1.0
18.84,33.0,1.0,1.0,1.0
18.88,30.0,1.0,1.0,1.0
18.92,42.504,1.0,1.0,1.0
18.96,39.0,1.0,1.0,1.0
19.0,34.5119,1.0,1.0,1.0
19.04,44.0,1.0,1.0,1.0
19.08,39.496,1.0,1.0,1.0
19.12,53.008,1.0,1.0,1.0
19.16,41.008,1.0,1.0,1.0
19.2,40.992,1.0,1.0,1.0
19.24,26.0,1.0,1.0,1.0
19.28,48.992,1.0,1.0,1.0
19.32,47.496,1.0,1.0,1.0
19.36,32.0,1.0,1.0,1.0
19.4,53.496,1.0,1.0,1.0
19.44,44.0,1.0,1.0,1.0
19.48,28.0,1.0,1.0,1.0
19.52,31.496,1.0,1.0,1.0
19.56,34.0,1.0,1.0,1.0
19.6,25.504,1.0,1.0,1.0
19.64,23.504,1.0,1.0,1.0
19.68,32.496,1.0,1.0,1.0
19.72,36.4881,1.0,1.0,1.0
19.76,35.496,1.0,1.0,1.0
19.8,39.0,1.0,1.0,1.0
19.84,35.504,1.0,1.0,1.0
19.88,35.496,1.0,1.0,1.0
19.92,31.0,1.0,1.0,1.0
19.96,54.0239,1.0,1.0,1.0
20.0,63.504,1.0,1.0,1.0
20.04,86.0,1.0,1.0,1.0
20.08,49.504,1.0,1.0,1.0
20.12,79.992,1.0,1.0,1.0
20.16,60.008,1.0,1.0,1.0
20.2,68.504,1.0,1.0,1.0
20.24,67.0159,1.0,1.0,1.0
20.28,47.4881,1.0,1.0,1.0
20.32,43.0,1.0,1.0,1.0
20.36,26.0,1.0,1.0,1.0
20.4,45.4881,1.0,1.0,1.0
20.44,17.4881,1.0,1.0,1.0
20.48,47.504,1.0,1.0,1.0
20.52,39.0,1.0,1.0,1.0
20.56,37.504,1.0,1.0,1.0
20.6,39.992,1.0,1.0,1.0
20.64,33.0,1.0,1.0,1.0
20.68,53.992,1.0,1.0,1.0
20.72,37.0,1.0,1.0,1.0
20.76,33.504,1.0,1.0,1.0
20.8,40.992,1.0,1.0,1.0
20.84,58.496,1.0,1.0,1.0
20.88,46.992,1.0,1.0,1.0
20.92,55.008,1.0,1.0,1.0
20.96,46.4881,1.0,1.0,1.0
21.0,33.0,1.0,1.0,1.0
21.04,61.504,1.0,1.0,1.0
21.08,40.008,1.0,1.0,1.0
21.12,45.0,1.0,1.0,1.0
21.16,69.504,1.0,1.0,1.0
21.2,84.0,1.0,1.0,1.0
21.24,99.992,1.0,1.0,1.0
21.28,100.496,1.0,1.0,1.0
21.32,118.0,1.0,1.0,1.0
21.36,118.496,1.0,1.0,1.0
21.4,142.0,1.0,1.0,1.0
21.44,178.496,1.0,1.0,1.0
21.48,164.496,1.0,1.0,1.0
21.52,152.5199,1.0,1.0,1.0
21.56,175.5119,1.0,1.0,1.0
21.6,167.5119,1.0,1.0,1.0
21.64,152.496,1.0,1.0,1.0
21.68,138.0,1.0,1.0,1.0
21.72,127.0,1.0,1.0,1.0
21.76,135.496,1.0,1.0,1.0
21.8,156.0,1.0,1.0,1.0
21.84,188.5119,1.0,1.0,1.0
21.88,342.0,1.0,1.0,1.0
21.92,484.0159,1.0,1.0,1.0
21.96,664.9681,1.0,1.0,1.0
22.0,849.0079,1.0,1.0,1.0
22.04,893.9841,1.0,1.0,1.0
22.08,901.504,1.0,1.0,1.0
22.12,857.9761,1.0,1.0,1.0
22.16,783.496,1.0,1.0,1.0
22.2,683.0,1.0,1.0,1.0
22.24,667.4721,1.0,1.0,1.0
22.28,568.512,1.0,1.0,1.0
22.32,513.9921,1.0,1.0,1.0
22.36,468.5199,1.0,1.0,1.0
22.4,393.0239,1.0,1.0,1.0
22.44,322.992,1.0,1.0,1.0
22.48,271.9841,1.0,1.0,1.0
22.52,236.0,1.0,1.0,1.0
22.56,309.5119,1.0,1.0,1.0
22.6,455.5119,1.0,1.0,1.0
22.64,700.5199,1.0,1.0,1.0
22.68,1069.01,1.0,1.0,1.0
22.72,1746.02,1.0,1.0,1.0
22.76,2349.96,1.0,1.0,1.0
22.8,2835.6,1.0,1.0,1.0
22.84,3215.98,1.0,1.0,1.0
22.88,3346.08,1.0,1.0,1.0
22.92,3119.58,1.0,1.0,1.0
22.96,2715.512,1.0,1.0,1.0
23.0,2353.94,1.0,1.0,1.0
23.04,2231.95,1.0,1.0,1.0
23.08,2063.0,1.0,1.0,1.0
23.12,2149.46,1.0,1.0,1.0
23.16,2194.512,1.0,1.0,1.0
23.2,2661.58,1.0,1.0,1.0
23.24,3286.03,1.0,1.0,1.0
23.28,4688.58,1.0,1.0,1.0
23.32,8156.21,1.0,1.0,1.0
23.36,20980,1.0,1.0,1.0
23.4,1.03407e+06,1.0,1.0,1.0
23.44,2443068.5,1.0,1.0,1.0
23.48,450744.75,1.0,1.0,1.0
23.52,68491.7,1.0,1.0,1.0
23.56,15423.5,1.0,1.0,1.0
23.6,4979.9,1.0,1.0,1.0
23.64,2266.97,1.0,1.0,1.0
23.68,1407.94,1.0,1.0,1.0
23.72,988.9522,1.0,1.0,1.0
23.76,702.0159,1.0,1.0,1.0
23.8,517.9921,1.0,1.0,1.0
23.84,415.9841,1.0,1.0,1.0
23.88,313.9841,1.0,1.0,1.0
23.92,236.9841,1.0,1.0,1.0
23.96,250.0159,1.0,1.0,1.0
24.0,175.496,1.0,1.0,1.0
24.04,188.504,1.0,1.0,1.0
24.08,165.4881,1.0,1.0,1.0
24.12,132.4801,1.0,1.0,1.0
24.16,151.504,1.0,1.0,1.0
24.2,100.504,1.0,1.0,1.0
24.24,123.504,1.0,1.0,1.0
24.28,87.5119,1.0,1.0,1.0
24.32,90.992,1.0,1.0,1.0
24.36,80.992,1.0,1.0,1.0
24.4,58.008,1.0,1.0,1.0
24.44,67.504,1.0,1.0,1.0
24.48,58.504,1.0,1.0,1.0
24.52,66.008,1.0,1.0,1.0
24.56,62.0,1.0,1.0,1.0
24.6,65.504,1.0,1.0,1.0
24.64,72.0,1.0,1.0,1.0
24.68,60.496,1.0,1.0,1.0
24.72,85.992,1.0,1.0,1.0
24.76,46.008,1.0,1.0,1.0
24.8,41.504,1.0,1.0,1.0
24.84,46.496,1.0,1.0,1.0
24.88,48.0,1.0,1.0,1.0
24.92,20.0,1.0,1.0,1.0
24.96,31.504,1.0,1.0,1.0
25.0,16.0,1.0,1.0,1.0
25.04,28.992,1.0,1.0,1.0
25.08,26.0,1.0,1.0,1.0
25.12,28.504,1.0,1.0,1.0
25.16,28.0,1.0,1.0,1.0
25.2,36.992,1.0,1.0,1.0
25.24,12.0,1.0,1.0,1.0
25.28,22.0,1.0,1.0,1.0
25.32,36.0,1.0,1.0,1.0
25.36,19.0,1.0,1.0,1.0
25.4,19.992,1.0,1.0,1.0
25.44,26.0,1.0,1.0,1.0
25.48,38.504,1.0,1.0,1.0
25.52,31.0,1.0,1.0,1.0
25.56,23.0,1.0,1.0,1.0
25.6,24.504,1.0,1.0,1.0
25.64,27.0,1.0,1.0,1.0
25.68,24.496,1.0,1.0,1.0
25.72,20.496,1.0,1.0,1.0
25.76,24.0,1.0,1.0,1.0
25.8,32.504,1.0,1.0,1.0
25.84,22.008,1.0,1.0,1.0
25.88,27.0,1.0,1.0,1.0
25.92,19.0,1.0,1.0,1.0
25.96,23.496,1.0,1.0,1.0
26.0,25.008,1.0,1.0,1.0
26.04,20.0,1.0,1.0,1.0
26.08,43.504,1.0,1.0,1.0
26.12,25.496,1.0,1.0,1.0
26.16,29.496,1.0,1.0,1.0
26.2,23.504,1.0,1.0,1.0
26.24,12.504,1.0,1.0,1.0
26.28,20.496,1.0,1.0,1.0
26.32,18.0,1.0,1.0,1.0
26.36,21.0,1.0,1.0,1.0
26.4,17.504,1.0,1.0,1.0
26.44,24.008,1.0,1.0,1.0
26.48,26.008,1.0,1.0,1.0
26.52,17.504,1.0,1.0,1.0
26.56,22.0,1.0,1.0,1.0
26.6,20.0,1.0,1.0,1.0
26.64,8.0,1.0,1.0,1.0
26.68,29.008,1.0,1.0,1.0
26.72,19.0,1.0,1.0,1.0
26.76,17.0,1.0,1.0,1.0
26.8,22.0,1.0,1.0,1.0
26.84,8.0,1.0,1.0,1.0
26.88,10.0,1.0,1.0,1.0
26.92,13.0,1.0,1.0,1.0
26.96,9.0,1.0,1.0,1.0
27.0,17.504,1.0,1.0,1.0
27.04,22.008,1.0,1.0,1.0
27.08,24.496,1.0,1.0,1.0
27.12,13.0,1.0,1.0,1.0
27.16,14.496,1.0,1.0,1.0
27.2,12.0,1.0,1.0,1.0
27.24,15.0,1.0,1.0,1.0
27.28,17.0,1.0,1.0,1.0
27.32,28.0,1.0,1.0,1.0
27.36,7.0,1.0,1.0,1.0
27.4,9.0,1.0,1.0,1.0
27.44,9.0,1.0,1.0,1.0
27.48,19.0,1.0,1.0,1.0
27.52,26.504,1.0,1.0,1.0
27.56,7.496,1.0,1.0,1.0
27.6,17.504,1.0,1.0,1.0
27.64,20.504,1.0,1.0,1.0
27.68,5.0,1.0,1.0,1.0
27.72,16.504,1.0,1.0,1.0
27.76,16.0,1.0,1.0,1.0
27.8,12.496,1.0,1.0,1.0
27.84,13.504,1.0,1.0,1.0
27.88,6.0,1.0,1.0,1.0
27.92,20.0,1.0,1.0,1.0
27.96,25.008,1.0,1.0,1.0
28.0,23.504,1.0,1.0,1.0