File: XRD:XRR/SCO/22169_SL(CO)L/22169_SL(CO)L_002_XRD.csv
#twotheta, yobs, ycal, bkg, diff
42.0,66.0,1.0,1.0,1.0
42.04,49.5056,1.0,1.0,1.0
42.08,82.0,1.0,1.0,1.0
42.12,62.5056,1.0,1.0,1.0
42.16,59.9889,1.0,1.0,1.0
42.2,61.4944,1.0,1.0,1.0
42.24,59.9889,1.0,1.0,1.0
42.28,68.0111,1.0,1.0,1.0
42.32,58.0,1.0,1.0,1.0
42.36,87.0,1.0,1.0,1.0
42.4,61.0111,1.0,1.0,1.0
42.44,58.0,1.0,1.0,1.0
42.48,74.5167,1.0,1.0,1.0
42.52,76.9778,1.0,1.0,1.0
42.56,61.9889,1.0,1.0,1.0
42.6,79.5056,1.0,1.0,1.0
42.64,86.0,1.0,1.0,1.0
42.68,64.9889,1.0,1.0,1.0
42.72,76.5056,1.0,1.0,1.0
42.76,88.4944,1.0,1.0,1.0
42.8,76.0222,1.0,1.0,1.0
42.84,64.0111,1.0,1.0,1.0
42.88,74.0222,1.0,1.0,1.0
42.92,101.5167,1.0,1.0,1.0
42.96,81.4944,1.0,1.0,1.0
43.0,80.5056,1.0,1.0,1.0
43.04,82.0,1.0,1.0,1.0
43.08,89.0,1.0,1.0,1.0
43.12,68.5056,1.0,1.0,1.0
43.16,78.4944,1.0,1.0,1.0
43.2,70.4944,1.0,1.0,1.0
43.24,53.5056,1.0,1.0,1.0
43.28,68.4944,1.0,1.0,1.0
43.32,69.4944,1.0,1.0,1.0
43.36,76.0,1.0,1.0,1.0
43.4,71.4722,1.0,1.0,1.0
43.44,115.0,1.0,1.0,1.0
43.48,77.5056,1.0,1.0,1.0
43.52,101.9778,1.0,1.0,1.0
43.56,92.5056,1.0,1.0,1.0
43.6,76.0111,1.0,1.0,1.0
43.64,92.4944,1.0,1.0,1.0
43.68,80.4833,1.0,1.0,1.0
43.72,73.5056,1.0,1.0,1.0
43.76,53.0,1.0,1.0,1.0
43.8,53.0,1.0,1.0,1.0
43.84,68.5056,1.0,1.0,1.0
43.88,76.0,1.0,1.0,1.0
43.92,75.4944,1.0,1.0,1.0
43.96,93.9889,1.0,1.0,1.0
44.0,88.0,1.0,1.0,1.0
44.04,110.5167,1.0,1.0,1.0
44.08,103.5167,1.0,1.0,1.0
44.12,113.5056,1.0,1.0,1.0
44.16,106.4944,1.0,1.0,1.0
44.2,121.4833,1.0,1.0,1.0
44.24,143.5056,1.0,1.0,1.0
44.28,159.0,1.0,1.0,1.0
44.32,142.4944,1.0,1.0,1.0
44.36,136.4944,1.0,1.0,1.0
44.4,168.5278,1.0,1.0,1.0
44.44,194.0111,1.0,1.0,1.0
44.48,172.0,1.0,1.0,1.0
44.52,194.9889,1.0,1.0,1.0
44.56,160.4833,1.0,1.0,1.0
44.6,217.0111,1.0,1.0,1.0
44.64,192.5056,1.0,1.0,1.0
44.68,216.9889,1.0,1.0,1.0
44.72,268.0,1.0,1.0,1.0
44.76,315.0,1.0,1.0,1.0
44.8,344.4944,1.0,1.0,1.0
44.84,484.4944,1.0,1.0,1.0
44.88,581.5167,1.0,1.0,1.0
44.92,730.5389,1.0,1.0,1.0
44.96,828.5278,1.0,1.0,1.0
45.0,1021.48,1.0,1.0,1.0
45.04,1237.49,1.0,1.0,1.0
45.08,1285.06,1.0,1.0,1.0
45.12,1399.58,1.0,1.0,1.0
45.16,1405.01,1.0,1.0,1.0
45.2,1338.03,1.0,1.0,1.0
45.24,1288.97,1.0,1.0,1.0
45.28,1148.99,1.0,1.0,1.0
45.32,1040.02,1.0,1.0,1.0
45.36,932.4944,1.0,1.0,1.0
45.4,1041.97,1.0,1.0,1.0
45.44,1176.97,1.0,1.0,1.0
45.48,1563.48,1.0,1.0,1.0
45.52,2081.58,1.0,1.0,1.0
45.56,2609.0,1.0,1.0,1.0
45.6,3148.47,1.0,1.0,1.0
45.64,3820.02,1.0,1.0,1.0
45.68,4239.52,1.0,1.0,1.0
45.72,4446.561,1.0,1.0,1.0
45.76,4816.02,1.0,1.0,1.0
45.8,4723.89,1.0,1.0,1.0
45.84,4754.96,1.0,1.0,1.0
45.88,4521.92,1.0,1.0,1.0
45.92,4217.49,1.0,1.0,1.0
45.96,3718.98,1.0,1.0,1.0
46.0,3281.91,1.0,1.0,1.0
46.04,2948.74,1.0,1.0,1.0
46.08,2366.439,1.0,1.0,1.0
46.12,2131.02,1.0,1.0,1.0
46.16,2124.04,1.0,1.0,1.0
46.2,2353.45,1.0,1.0,1.0
46.24,2939.97,1.0,1.0,1.0
46.28,3876.52,1.0,1.0,1.0
46.32,5216.439,1.0,1.0,1.0
46.36,6941.96,1.0,1.0,1.0
46.4,8750.35,1.0,1.0,1.0
46.44,10158,1.0,1.0,1.0
46.48,11667.4,1.0,1.0,1.0
46.52,12647.4,1.0,1.0,1.0
46.56,13208.417,1.0,1.0,1.0
46.6,12940.1,1.0,1.0,1.0
46.64,12598.3,1.0,1.0,1.0
46.68,11638.5,1.0,1.0,1.0
46.72,10697.5,1.0,1.0,1.0
46.76,9629.53,1.0,1.0,1.0
46.8,8462.99,1.0,1.0,1.0
46.84,7362.97,1.0,1.0,1.0
46.88,6736.99,1.0,1.0,1.0
46.92,5845.57,1.0,1.0,1.0
46.96,5200.03,1.0,1.0,1.0
47.0,4521.02,1.0,1.0,1.0
47.04,3988.53,1.0,1.0,1.0
47.08,3349.63,1.0,1.0,1.0
47.12,3010.38,1.0,1.0,1.0
47.16,2372.48,1.0,1.0,1.0
47.2,2120.45,1.0,1.0,1.0
47.24,1733.04,1.0,1.0,1.0
47.28,1557.01,1.0,1.0,1.0
47.32,1524.56,1.0,1.0,1.0
47.36,1612.99,1.0,1.0,1.0
47.4,1865.06,1.0,1.0,1.0
47.44,2111.53,1.0,1.0,1.0
47.48,2646.99,1.0,1.0,1.0
47.52,3069.99,1.0,1.0,1.0
47.56,3638.55,1.0,1.0,1.0
47.6,3982.439,1.0,1.0,1.0
47.64,4867.9,1.0,1.0,1.0
47.68,5600.79,1.0,1.0,1.0
47.72,7610.09,1.0,1.0,1.0
47.76,11228.3,1.0,1.0,1.0
47.8,22639.3,1.0,1.0,1.0
47.84,152552,1.0,1.0,1.0
47.88,9135124.0,1.0,1.0,1.0
47.92,4334026.0,1.0,1.0,1.0
47.96,1885580.0,1.0,1.0,1.0
48.0,441926,1.0,1.0,1.0
48.04,140198,1.0,1.0,1.0
48.08,60822.2,1.0,1.0,1.0
48.12,23845.666,1.0,1.0,1.0
48.16,11190.6,1.0,1.0,1.0
48.2,5828.51,1.0,1.0,1.0
48.24,3336.01,1.0,1.0,1.0
48.28,2256.54,1.0,1.0,1.0
48.32,1593.97,1.0,1.0,1.0
48.36,1191.03,1.0,1.0,1.0
48.4,933.5167,1.0,1.0,1.0
48.44,688.5056,1.0,1.0,1.0
48.48,547.0111,1.0,1.0,1.0
48.52,473.5167,1.0,1.0,1.0
48.56,388.0,1.0,1.0,1.0
48.6,407.4833,1.0,1.0,1.0
48.64,345.5389,1.0,1.0,1.0
48.68,342.5167,1.0,1.0,1.0
48.72,384.0111,1.0,1.0,1.0
48.76,351.4389,1.0,1.0,1.0
48.8,319.5167,1.0,1.0,1.0
48.84,317.0111,1.0,1.0,1.0
48.88,248.4833,1.0,1.0,1.0
48.92,242.9778,1.0,1.0,1.0
48.96,234.4944,1.0,1.0,1.0
49.0,193.0,1.0,1.0,1.0
49.04,186.4944,1.0,1.0,1.0
49.08,180.4722,1.0,1.0,1.0
49.12,150.4944,1.0,1.0,1.0
49.16,155.9889,1.0,1.0,1.0
49.2,150.4944,1.0,1.0,1.0
49.24,118.4944,1.0,1.0,1.0
49.28,113.9778,1.0,1.0,1.0
49.32,112.9778,1.0,1.0,1.0
49.36,75.0111,1.0,1.0,1.0
49.4,93.0111,1.0,1.0,1.0
49.44,118.4944,1.0,1.0,1.0
49.48,84.5056,1.0,1.0,1.0
49.52,83.0,1.0,1.0,1.0
49.56,67.0,1.0,1.0,1.0
49.6,93.4944,1.0,1.0,1.0
49.64,89.0,1.0,1.0,1.0
49.68,70.0,1.0,1.0,1.0
49.72,78.0,1.0,1.0,1.0
49.76,72.0,1.0,1.0,1.0
49.8,71.0,1.0,1.0,1.0
49.84,71.5056,1.0,1.0,1.0
49.88,49.4833,1.0,1.0,1.0
49.92,72.4833,1.0,1.0,1.0
49.96,69.5056,1.0,1.0,1.0
50.0,67.4944,1.0,1.0,1.0
50.04,67.5056,1.0,1.0,1.0
50.08,61.5056,1.0,1.0,1.0
50.12,74.5167,1.0,1.0,1.0
50.16,69.0111,1.0,1.0,1.0
50.2,67.9889,1.0,1.0,1.0
50.24,57.5056,1.0,1.0,1.0
50.28,61.5167,1.0,1.0,1.0
50.32,52.4944,1.0,1.0,1.0
50.36,63.9889,1.0,1.0,1.0
50.4,106.5056,1.0,1.0,1.0
50.44,58.0,1.0,1.0,1.0
50.48,52.0,1.0,1.0,1.0
50.52,65.5167,1.0,1.0,1.0
50.56,48.5056,1.0,1.0,1.0
50.6,74.4833,1.0,1.0,1.0
50.64,40.5167,1.0,1.0,1.0
50.68,60.0,1.0,1.0,1.0
50.72,46.9889,1.0,1.0,1.0
50.76,62.0,1.0,1.0,1.0
50.8,56.4944,1.0,1.0,1.0
50.84,47.0111,1.0,1.0,1.0
50.88,44.5167,1.0,1.0,1.0
50.92,37.0111,1.0,1.0,1.0
50.96,51.4944,1.0,1.0,1.0
51.0,50.0,1.0,1.0,1.0
51.04,61.0111,1.0,1.0,1.0
51.08,71.9889,1.0,1.0,1.0
51.12,60.0,1.0,1.0,1.0
51.16,45.0,1.0,1.0,1.0
51.2,32.4944,1.0,1.0,1.0
51.24,60.5056,1.0,1.0,1.0
51.28,65.5056,1.0,1.0,1.0
51.32,63.0111,1.0,1.0,1.0
51.36,51.0222,1.0,1.0,1.0
51.4,42.5056,1.0,1.0,1.0
51.44,30.4944,1.0,1.0,1.0
51.48,59.4944,1.0,1.0,1.0
51.52,33.0,1.0,1.0,1.0
51.56,45.4944,1.0,1.0,1.0
51.6,49.0111,1.0,1.0,1.0
51.64,58.9778,1.0,1.0,1.0
51.68,52.4833,1.0,1.0,1.0
51.69,37.0222,1.0,1.0,1.0