File: XRD:XRR/LCO/22158b_LCOS/22158a_LCOS_002_XRD.csv
#twotheta, yobs, ycal, bkg, diff
42.0,32.0222,1.0,1.0,1.0
42.04,20.4944,1.0,1.0,1.0
42.08,31.5167,1.0,1.0,1.0
42.12,19.0,1.0,1.0,1.0
42.16,24.5167,1.0,1.0,1.0
42.2,7.0,1.0,1.0,1.0
42.24,15.5056,1.0,1.0,1.0
42.28,24.4944,1.0,1.0,1.0
42.32,23.4944,1.0,1.0,1.0
42.36,16.0,1.0,1.0,1.0
42.4,91.0,1.0,1.0,1.0
42.44,46.0,1.0,1.0,1.0
42.48,24.0,1.0,1.0,1.0
42.52,27.0,1.0,1.0,1.0
42.56,27.0111,1.0,1.0,1.0
42.6,48.9889,1.0,1.0,1.0
42.64,40.5056,1.0,1.0,1.0
42.68,52.4944,1.0,1.0,1.0
42.72,60.5056,1.0,1.0,1.0
42.76,46.0,1.0,1.0,1.0
42.8,52.5056,1.0,1.0,1.0
42.84,38.0,1.0,1.0,1.0
42.88,19.9889,1.0,1.0,1.0
42.92,12.5056,1.0,1.0,1.0
42.96,22.9889,1.0,1.0,1.0
43.0,9.5056,1.0,1.0,1.0
43.04,20.0,1.0,1.0,1.0
43.08,26.9889,1.0,1.0,1.0
43.12,30.5056,1.0,1.0,1.0
43.16,49.4944,1.0,1.0,1.0
43.2,40.0,1.0,1.0,1.0
43.24,72.4944,1.0,1.0,1.0
43.28,53.9889,1.0,1.0,1.0
43.32,68.0222,1.0,1.0,1.0
43.36,72.4944,1.0,1.0,1.0
43.4,65.5167,1.0,1.0,1.0
43.44,78.4833,1.0,1.0,1.0
43.48,52.0,1.0,1.0,1.0
43.52,60.9889,1.0,1.0,1.0
43.56,40.4833,1.0,1.0,1.0
43.6,33.0111,1.0,1.0,1.0
43.64,24.0,1.0,1.0,1.0
43.68,30.5056,1.0,1.0,1.0
43.72,37.4944,1.0,1.0,1.0
43.76,31.0,1.0,1.0,1.0
43.8,47.5056,1.0,1.0,1.0
43.84,62.4944,1.0,1.0,1.0
43.88,72.4833,1.0,1.0,1.0
43.92,78.0,1.0,1.0,1.0
43.96,106.0,1.0,1.0,1.0
44.0,104.0111,1.0,1.0,1.0
44.04,115.4833,1.0,1.0,1.0
44.08,104.4944,1.0,1.0,1.0
44.12,125.4944,1.0,1.0,1.0
44.16,102.9889,1.0,1.0,1.0
44.2,92.0111,1.0,1.0,1.0
44.24,86.4944,1.0,1.0,1.0
44.28,62.4944,1.0,1.0,1.0
44.32,59.4944,1.0,1.0,1.0
44.36,29.5056,1.0,1.0,1.0
44.4,36.5056,1.0,1.0,1.0
44.44,41.4944,1.0,1.0,1.0
44.48,31.5056,1.0,1.0,1.0
44.52,52.4944,1.0,1.0,1.0
44.56,80.4944,1.0,1.0,1.0
44.6,92.0,1.0,1.0,1.0
44.64,138.5056,1.0,1.0,1.0
44.68,140.0,1.0,1.0,1.0
44.72,177.4833,1.0,1.0,1.0
44.76,184.4944,1.0,1.0,1.0
44.8,171.4944,1.0,1.0,1.0
44.84,177.0111,1.0,1.0,1.0
44.88,162.9889,1.0,1.0,1.0
44.92,150.5056,1.0,1.0,1.0
44.96,134.9778,1.0,1.0,1.0
45.0,110.5056,1.0,1.0,1.0
45.04,104.9889,1.0,1.0,1.0
45.08,76.4833,1.0,1.0,1.0
45.12,90.9889,1.0,1.0,1.0
45.16,93.9889,1.0,1.0,1.0
45.2,123.4944,1.0,1.0,1.0
45.24,185.4944,1.0,1.0,1.0
45.28,269.5167,1.0,1.0,1.0
45.32,385.5056,1.0,1.0,1.0
45.36,418.5167,1.0,1.0,1.0
45.4,565.5167,1.0,1.0,1.0
45.44,675.9889,1.0,1.0,1.0
45.48,751.4944,1.0,1.0,1.0
45.52,748.4944,1.0,1.0,1.0
45.56,758.4833,1.0,1.0,1.0
45.6,752.0,1.0,1.0,1.0
45.64,707.9222,1.0,1.0,1.0
45.68,723.0222,1.0,1.0,1.0
45.72,635.0222,1.0,1.0,1.0
45.76,578.4833,1.0,1.0,1.0
45.8,636.9445,1.0,1.0,1.0
45.84,655.55,1.0,1.0,1.0
45.88,864.0333,1.0,1.0,1.0
45.92,1169.97,1.0,1.0,1.0
45.96,1583.54,1.0,1.0,1.0
46.0,2283.88,1.0,1.0,1.0
46.04,3224.96,1.0,1.0,1.0
46.08,4378.49,1.0,1.0,1.0
46.12,5796.47,1.0,1.0,1.0
46.16,7182.54,1.0,1.0,1.0
46.2,9225.68,1.0,1.0,1.0
46.24,11239.9,1.0,1.0,1.0
46.28,13309.3,1.0,1.0,1.0
46.32,15501.2,1.0,1.0,1.0
46.36,17970.3,1.0,1.0,1.0
46.4,20379.3,1.0,1.0,1.0
46.44,22773.3,1.0,1.0,1.0
46.48,24923.2,1.0,1.0,1.0
46.52,27218.584,1.0,1.0,1.0
46.56,29242.2,1.0,1.0,1.0
46.6,31658,1.0,1.0,1.0
46.64,33989.1,1.0,1.0,1.0
46.68,38221.168,1.0,1.0,1.0
46.72,43694.8,1.0,1.0,1.0
46.76,54943.7,1.0,1.0,1.0
46.8,87618.5,1.0,1.0,1.0
46.84,292229,1.0,1.0,1.0
46.88,26029580.0,1.0,1.0,1.0
46.92,12622661.0,1.0,1.0,1.0
46.96,384456,1.0,1.0,1.0
47.0,66776.9,1.0,1.0,1.0
47.04,21442.2,1.0,1.0,1.0
47.08,9392.18,1.0,1.0,1.0
47.12,5408.72,1.0,1.0,1.0
47.16,3638.96,1.0,1.0,1.0
47.2,2342.62,1.0,1.0,1.0
47.24,1555.52,1.0,1.0,1.0
47.28,986.0444,1.0,1.0,1.0
47.32,599.5722,1.0,1.0,1.0
47.36,376.0222,1.0,1.0,1.0
47.4,240.0222,1.0,1.0,1.0
47.44,231.5167,1.0,1.0,1.0
47.48,206.0,1.0,1.0,1.0
47.52,245.5278,1.0,1.0,1.0
47.56,326.5167,1.0,1.0,1.0
47.6,384.0,1.0,1.0,1.0
47.64,424.4833,1.0,1.0,1.0
47.68,458.4722,1.0,1.0,1.0
47.72,477.9778,1.0,1.0,1.0
47.76,438.4833,1.0,1.0,1.0
47.8,444.0,1.0,1.0,1.0
47.84,371.9889,1.0,1.0,1.0
47.88,305.5056,1.0,1.0,1.0
47.92,244.0111,1.0,1.0,1.0
47.96,174.9889,1.0,1.0,1.0
48.0,139.9778,1.0,1.0,1.0
48.04,79.0,1.0,1.0,1.0
48.08,49.0,1.0,1.0,1.0
48.12,63.5056,1.0,1.0,1.0
48.16,46.4944,1.0,1.0,1.0
48.2,44.5056,1.0,1.0,1.0
48.24,65.9889,1.0,1.0,1.0
48.28,79.4944,1.0,1.0,1.0
48.32,99.9889,1.0,1.0,1.0
48.36,112.0,1.0,1.0,1.0
48.4,119.0,1.0,1.0,1.0
48.44,139.0111,1.0,1.0,1.0
48.48,123.0,1.0,1.0,1.0
48.52,132.5167,1.0,1.0,1.0
48.56,114.5056,1.0,1.0,1.0
48.6,132.5056,1.0,1.0,1.0
48.64,102.9889,1.0,1.0,1.0
48.68,85.4944,1.0,1.0,1.0
48.72,68.0,1.0,1.0,1.0
48.76,28.0111,1.0,1.0,1.0
48.8,23.5056,1.0,1.0,1.0
48.84,19.0,1.0,1.0,1.0
48.88,24.0,1.0,1.0,1.0
48.92,27.4944,1.0,1.0,1.0
48.96,23.0,1.0,1.0,1.0
49.0,33.4944,1.0,1.0,1.0
49.04,40.0,1.0,1.0,1.0
49.08,49.4944,1.0,1.0,1.0
49.12,42.4944,1.0,1.0,1.0
49.16,49.0,1.0,1.0,1.0
49.2,43.4944,1.0,1.0,1.0
49.24,57.0,1.0,1.0,1.0
49.28,41.9889,1.0,1.0,1.0
49.32,51.0111,1.0,1.0,1.0
49.36,36.0111,1.0,1.0,1.0
49.4,31.0,1.0,1.0,1.0
49.44,46.4944,1.0,1.0,1.0
49.48,35.4944,1.0,1.0,1.0
49.52,21.0,1.0,1.0,1.0
49.56,16.0,1.0,1.0,1.0
49.6,12.4944,1.0,1.0,1.0
49.64,7.0,1.0,1.0,1.0
49.68,2.0,1.0,1.0,1.0
49.72,17.0,1.0,1.0,1.0
49.76,13.5056,1.0,1.0,1.0
49.8,15.9889,1.0,1.0,1.0
49.84,23.0,1.0,1.0,1.0
49.88,32.0,1.0,1.0,1.0
49.92,36.4944,1.0,1.0,1.0
49.96,41.5056,1.0,1.0,1.0
50.0,24.0,1.0,1.0,1.0
50.04,36.0,1.0,1.0,1.0
50.08,23.0,1.0,1.0,1.0
50.12,27.0,1.0,1.0,1.0
50.16,23.0,1.0,1.0,1.0
50.2,24.5056,1.0,1.0,1.0
50.24,23.0,1.0,1.0,1.0
50.28,14.0,1.0,1.0,1.0
50.32,14.4944,1.0,1.0,1.0
50.36,5.5056,1.0,1.0,1.0
50.4,0.0,1.0,1.0,1.0
50.44,7.0,1.0,1.0,1.0
50.48,11.0,1.0,1.0,1.0
50.52,4.0,1.0,1.0,1.0
50.56,10.9889,1.0,1.0,1.0
50.6,24.0,1.0,1.0,1.0
50.64,16.0,1.0,1.0,1.0
50.68,21.0,1.0,1.0,1.0
50.72,20.0,1.0,1.0,1.0
50.76,19.4944,1.0,1.0,1.0
50.8,8.0,1.0,1.0,1.0
50.84,6.0,1.0,1.0,1.0
50.88,21.0,1.0,1.0,1.0
50.92,11.0,1.0,1.0,1.0
50.96,9.0,1.0,1.0,1.0
51.0,9.0,1.0,1.0,1.0
51.04,18.4944,1.0,1.0,1.0
51.08,7.0,1.0,1.0,1.0
51.12,12.4944,1.0,1.0,1.0
51.16,6.0,1.0,1.0,1.0
51.2,7.0,1.0,1.0,1.0
51.24,2.0,1.0,1.0,1.0
51.28,35.4944,1.0,1.0,1.0
51.32,8.0,1.0,1.0,1.0
51.36,6.0,1.0,1.0,1.0
51.4,7.4944,1.0,1.0,1.0
51.44,9.0,1.0,1.0,1.0
51.48,3.0,1.0,1.0,1.0
51.52,8.0,1.0,1.0,1.0
51.56,9.0,1.0,1.0,1.0
51.6,16.4944,1.0,1.0,1.0
51.64,6.0,1.0,1.0,1.0
51.68,7.0,1.0,1.0,1.0
51.72,7.0,1.0,1.0,1.0
51.76,4.0,1.0,1.0,1.0
51.8,6.0,1.0,1.0,1.0
51.84,8.4944,1.0,1.0,1.0
51.88,2.0,1.0,1.0,1.0
51.92,11.0,1.0,1.0,1.0
51.96,4.4944,1.0,1.0,1.0
52.0,5.4944,1.0,1.0,1.0