File: XRD:XRR/LCO/22158b_LCOS/22158a_LCOS_002_XRD_2-Theta_Omega.asc
*TYPE		=  Raw
*CLASS		=  ASCII CLASS
*SAMPLE		=
*COMMENT	=
*FNAME		=  22158a_LCOS_002_XRD_2-Theta_Omega.asc
*DATE		=  15-Nov-22 17:26

*GROUP_COUNT	=  1
*GONIO		=  SmartLab(In-plane), 0.000000
*ATTACHMENT	=  Z-Phi Stage
*ASC		=  0, 0, 0.000000, 0.000000
*I_MONOCHRO	=  Ge(220)x2, 0.000000
*FILTER		=  None
*C_MONOCHRO	=  None, 0.000000
*SLIT_NAME	=  0, Incident slit
*SLIT_NAME	=  1, Receiving slit # 1
*SLIT_NAME	=  2, Receiving slit # 2
*COUNTER	=  D/teX Ultra 250, 0
*POS_FORMAT	=  0
*SCAN_AXIS	=  2Theta/Omega
*MEAS_MODE	=  Continuous Scanning
*TARGET		=  29
*XRAY_CHAR	=  K-ALPHA1
*WAVE_LENGTH1	=  1.54059
*WAVE_LENGTH2	=  1.54441
*THICKNESS	=  0, 0.000000
*MU		=  0, 0.000000
*SCAN_MODE	=  2Theta/Omega
*SPEED_DIM	=  sec./step
*XUNIT		=  deg.
*YUNIT		=  counts
*SCALE_MODE	=  1
*REP_COUNT	=  0
*SE_COUNT	=  0
*STD_MATERIAL	=  Unknown, Unknown, 0.000000, 0.000000, 0.000000, 0.000000, 0.000000, 0.000000
*LATT_CONS	=  0, Unknown, Unknown, 0.000000, 0.000000, 0.000000, 0.000000, 0.000000, 0.000000
*SEC_COUNT	=  1
*TSPEC_SIZE	=  0
*EXTRA_SIZE	=  0
*MEMO		=

*BEGIN
*GROUP		=  0
*START		=  42
*STOP		=  52
*STEP		=  0.01
*OFFSET		=  -0.007900
*SPEED		=  23.9588
*SLIT_SPEC	=  0, 0.400mm, 0.4, 0.000000
*SLIT_SPEC	=  1, 0.400mm, 0.4, 0.000000
*SLIT_SPEC	=  2, 0.400mm, 0.4, 0.000000
*KV		=  40
*MA		=  30
*LOW		=  0.000000
*HIGH		=  0.000000
*CTEMPER	=  0, 0.000000
*CTEMPER	=  1, 0.000000
*CTEMPER	=  2, 0.000000
*PAREX		=  0, 0.000000
*PAREX		=  1, 0.000000
*PAREX		=  2, 0.000000
*PAREX		=  3, 0.000000
*PAREX		=  4, 0.000000
*PAREX		=  5, 0.000000
*PAREX		=  6, 0.000000
*PAREX		=  7, 0.000000
*PAREX		=  8, 0.000000
*PAREX		=  9, 0.000000
*PAREX		=  10, 0.000000
*PAREX		=  11, 0.000000
*PAREX		=  12, 0.000000
*PAREX		=  13, 0.000000
*PAREX		=  14, 0.000000
*PAREX		=  15, 0.000000
*FULL_SCALE	=  2030465.5
*INDEX		=  0, 0, 0
*COUNT		=  1001
32.0222, 26, 39, 19
20.4944, 26.5056, 30, 45.4833
31.5167, 29.9889, 37.0111, 39
19, 21, 25, 32.4833
24.5167, 20, 26, 19
7, 26, 20, 14.4944
15.5056, 11, 13, 23
24.4944, 12.5056, 22, 15
23.4944, 8.50555, 7, 30
16, 22, 15, 8
91, 18.4944, 20.5056, 36.4944
46, 27.5056, 18, 29
24, 34.4944, 22, 41.5056
27, 22.9889, 62.5056, 44.4944
27.0111, 50.9889, 54, 46.0111
48.9889, 42.0111, 29.4944, 38
40.5056, 52.4833, 64.5167, 40
52.4944, 34.4944, 62.0111, 39.4944
60.5056, 43.4944, 55.5056, 52.4944
46, 54.5056, 52.4944, 47
52.5056, 28.4944, 43, 34
38, 32.5056, 25.9889, 26.0111
19.9889, 33.5056, 31.5056, 23.4944
12.5056, 9.49445, 18.5056, 36
22.9889, 16, 31.0111, 19.9889
9.50555, 21, 15.5056, 22
20, 12, 25.4944, 28.5056
26.9889, 19.4944, 30.5056, 19.5056
30.5056, 27, 40.9889, 39.0111
49.4944, 56, 35, 45.5056
40, 48.4944, 65.5056, 70
72.4944, 70.4944, 69, 74.0111
53.9889, 57.5056, 56.4944, 78.9889
68.0222, 74, 62.4944, 86
72.4944, 93, 75, 82.4944
65.5167, 67.9778, 81.0222, 58.9889
78.4833, 115.517, 67.0111, 67.4944
52, 64.5056, 63.9778, 40.0222
60.9889, 50, 45, 37.0111
40.4833, 32.5167, 33.9889, 42
33.0111, 41, 23.9889, 31.0111
24, 27, 38, 17.9889
30.5056, 30.4944, 32.0111, 15
37.4944, 28, 22, 40.5056
31, 37, 33.4944, 25.4944
47.5056, 52.4944, 29.0111, 39.4944
62.4944, 52.0111, 61.4944, 58
72.4833, 60.5056, 65.5056, 66.5056
78, 103.494, 73, 90.5056
106, 83.4944, 92, 118.494
104.011, 67.9889, 115.494, 119.011
115.483, 109.528, 129.483, 102.011
104.494, 118.494, 114.989, 145
125.494, 122.022, 109, 114
102.989, 127.506, 118.494, 103.506
92.0111, 90.5056, 108.483, 86.0111
86.4944, 74.5056, 85.9889, 88.0111
62.4944, 64, 58, 57.0111
59.4944, 54.5056, 38, 68.4944
29.5056, 48.4944, 43.4944, 46.5056
36.5056, 39.9889, 39, 41.0111
41.4944, 40.4944, 34.0111, 25.9889
31.5056, 49, 52, 34.5056
52.4944, 66, 54.4833, 61.5167
80.4944, 78.4944, 74.5167, 83.4833
92, 99, 99.5056, 114.989
138.506, 113.494, 118.989, 158.506
140, 180.517, 152.989, 132.517
177.483, 177.494, 176.517, 150.494
184.494, 180, 181.506, 176
171.494, 176.022, 193.978, 157.989
177.011, 175, 187, 168.506
162.989, 144.022, 171.483, 147.506
150.506, 131.506, 115.483, 161.011
134.978, 156.022, 125, 103.494
110.506, 98, 117.989, 79.0111
104.989, 98.0111, 92, 87.4944
76.4833, 72.0333, 70.9889, 87.0111
90.9889, 94.4833, 78.5167, 78.5056
93.9889, 110.506, 121.011, 86.9778
123.494, 197.011, 150, 170
185.494, 228.494, 210.011, 248.461
269.517, 273.506, 325.483, 348.506
385.506, 391.978, 426.528, 399.472
418.517, 469.989, 525.989, 562
565.517, 560.483, 622.956, 631.056
675.989, 674.978, 695.517, 694.494
751.494, 749.494, 779.011, 749.989
748.494, 819.528, 728.989, 789.494
758.483, 796.539, 786.956, 808.539
752, 807.989, 772.528, 829.483
707.922, 743.056, 732.033, 699.978
723.022, 686, 680.978, 669.483
635.022, 594.528, 588.978, 639.517
578.483, 606.989, 564.033, 608.989
636.944, 633.528, 599.044, 692.45
655.55, 739.472, 714.506, 741.944
864.033, 891.011, 983.506, 1117.99
1169.97, 1271.44, 1427, 1541
1583.54, 1783.92, 1894.99, 2117.08
2283.88, 2477.47, 2614, 3077.44
3224.96, 3491.97, 3724.03, 3894.41
4378.49, 4619.87, 4925.16, 5320.86
5796.47, 6123.02, 6403.34, 6696.01
7182.54, 7763.71, 8335.14, 8543.02
9225.68, 9570.45, 9954.1, 10487.9
11239.9, 11694.3, 12237.5, 12921.4
13309.3, 14119.9, 14727, 14912.9
15501.2, 16370.2, 16783.5, 17323.4
17970.3, 18431.3, 19356.6, 19950.2
20379.3, 21261.4, 21441.5, 22112.4
22773.3, 23247, 24037.5, 24734.6
24923.2, 25475.3, 25826.7, 26634.2
27218.6, 27625.4, 28295, 28595.6
29242.2, 30101.2, 30611.3, 31055.2
31658, 31870.7, 33104.9, 33611.8
33989.1, 35051.3, 35613.6, 36615.6
38221.2, 38661.9, 39965.7, 41625
43694.8, 45589.1, 48307.4, 51405.5
54943.7, 60495.7, 66426.5, 75383.1
87618.5, 108259, 140023, 193836
292229, 498294, 1020609.6, 3966714.5
26029580, 33735712, 21736190, 13989685
12622661, 8317408, 2821175.5, 833598
384456, 220516, 140679, 95033.7
66776.9, 48129.5, 35528.3, 27020.2
21442.2, 17239, 13755, 11401.7
9392.18, 8060.61, 6895.08, 6122.57
5408.72, 4890.93, 4334.53, 4075.67
3638.96, 3297.1, 2945.08, 2680.92
2342.62, 2156.97, 1930.01, 1753.04
1555.52, 1440.54, 1249.92, 1085.06
986.044, 859.989, 773.472, 673.022
599.572, 507.933, 435.056, 433.989
376.022, 357, 295.494, 248.506
240.022, 223.494, 236.483, 201
231.517, 195, 196.989, 218.494
206, 241.517, 231.506, 208.461
245.528, 257.494, 286.989, 319.989
326.517, 334.483, 333.494, 369.022
384, 390.956, 421.033, 430.506
424.483, 432.011, 432.978, 458.539
458.472, 473.517, 470.461, 501.022
477.978, 461.528, 427.011, 432.472
438.483, 450.033, 465.494, 454.022
444, 373.472, 413.539, 385.483
371.989, 328, 343.022, 328.989
305.506, 300.472, 250.022, 234
244.011, 250.011, 215.472, 206.022
174.989, 173.506, 164.517, 140.506
139.978, 117.517, 120.483, 109.517
79, 96.4833, 75.0111, 53.0111
49, 63.4944, 57, 55.4944
63.5056, 55, 20.5056, 39.9889
46.4944, 44.5167, 38, 48.4944
44.5056, 39.4944, 38.4944, 62.0111
65.9889, 61.4944, 70.5056, 75.5056
79.4944, 81.0111, 72.4944, 96
99.9889, 96.5167, 110.472, 129.011
112, 112.011, 120.506, 121.483
119, 155.989, 133.517, 135.494
139.011, 130.978, 136.989, 150.517
123, 134.011, 140.989, 134.506
132.517, 109.483, 128, 106
114.506, 113, 123.483, 109.506
132.506, 94.0111, 80.4833, 88.0222
102.989, 74.5056, 77.5056, 74
85.4944, 80.5056, 66.4944, 79
68, 38.5056, 53.4944, 42.4944
28.0111, 23, 42.9889, 36.5056
23.5056, 30, 29, 34
19, 34.4944, 24.5056, 36
24, 19.4944, 10.9889, 27.5167
27.4944, 21, 29.5056, 18
23, 27.4944, 32, 27.5056
33.4944, 52, 47, 18.5056
40, 48, 35.4944, 33.5056
49.4944, 32, 34.5056, 41.4944
42.4944, 53.0111, 63, 53
49, 41.9889, 57.4944, 61.0111
43.4944, 61.5056, 74.5056, 57
57, 45.4944, 58, 59.5056
41.9889, 51.0111, 43.9889, 58.4944
51.0111, 52, 62.5056, 35.9889
36.0111, 21, 29.9889, 38.0111
31, 36, 41.4944, 23.5056
46.4944, 25.4944, 30.0111, 26
35.4944, 17.5056, 18, 11
21, 22, 25, 22
16, 15, 23, 10
12.4944, 10.5056, 13, 24
7, 8, 8, 11
2, 17, 15, 15
17, 11, 6, 16.4944
13.5056, 20, 10, 18
15.9889, 24.5056, 15.5056, 28
23, 32, 18, 16
32, 14.4944, 28.5056, 32
36.4944, 31, 21.5056, 38.4944
41.5056, 37, 35, 27
24, 13, 34.4944, 18.5056
36, 43.9889, 27.0111, 30
23, 27, 27, 21
27, 31, 20.9889, 27.0111
23, 26.9889, 12.0111, 20.4944
24.5056, 22, 11, 18
23, 12, 15, 5
14, 7, 9, 10
14.4944, 11.5056, 12, 12.4944
5.50555, 6, 8.49445, 1.50555
0.000000, 9.49445, 17.5056, 3
7, 13, 13, 14
11, 12, 6, 12
4, 7.49445, 10, 17.5056
10.9889, 15.0111, 25, 15
24, 26, 16, 8
16, 18, 17.4944, 15.5056
21, 7, 15, 17
20, 17, 13, 15
19.4944, 22.5056, 7, 7
8, 10, 13, 9
6, 9, 19, 24
21, 13, 15, 19
11, 3, 14, 8
9, 13.4944, 9.50555, 8
9, 11, 2, 20
18.4944, 4.50555, 0.000000, 5
7, 13, 14, 6
12.4944, 5.50555, 6, 2
6, 2, 5.49445, 15.5056
7, 3, 6, 5
2, 5, 11.4944, 8.50555
35.4944, 2.50555, 7.49445, 8.50555
8, 7, 2, 8
6, 4, 4, 7
7.49445, 18.5056, 20, 13
9, 0.000000, 15.4944, 16.5056
3, 6, 7, 19
8, 15, 4, 7
9, 15, 5, 9
16.4944, 8.50555, 25, 17
6, 14, 9, 11
7, 9, 2, 11
7, 7, 14.4944, 11.5056
4, 7, 8, 12
6, 11, 9, 2
8.49445, 5.50555, 11, 6
2, 2, 13.4944, 7.50555
11, 2, 8, 7.49445
4.49445, 8.01111, 2, 10
5.49445
*END

*EOF