File: XRD:XRR/LCO/22158b_LCOS/22158a_LCOS_XRR_2-Theta_Omega.asc
*TYPE		=  Raw
*CLASS		=  ASCII CLASS
*SAMPLE		=
*COMMENT	=
*FNAME		=  22158a_LCOS_XRR_2-Theta_Omega.asc
*DATE		=  15-Nov-22 20:15

*GROUP_COUNT	=  1
*GONIO		=  SmartLab(In-plane), 0.000000
*ATTACHMENT	=  Z-Phi Stage
*ASC		=  0, 0, 0.000000, 0.000000
*I_MONOCHRO	=  Ge(220)x2, 0.000000
*FILTER		=  None
*C_MONOCHRO	=  None, 0.000000
*SLIT_NAME	=  0, Incident slit
*SLIT_NAME	=  1, Receiving slit # 1
*SLIT_NAME	=  2, Receiving slit # 2
*COUNTER	=  D/teX Ultra 250, 0
*POS_FORMAT	=  0
*SCAN_AXIS	=  2Theta/Omega
*MEAS_MODE	=  Continuous Scanning
*TARGET		=  29
*XRAY_CHAR	=  K-ALPHA1
*WAVE_LENGTH1	=  1.54059
*WAVE_LENGTH2	=  1.54441
*THICKNESS	=  0, 0.000000
*MU		=  0, 0.000000
*SCAN_MODE	=  2Theta/Omega
*SPEED_DIM	=  sec./step
*XUNIT		=  deg.
*YUNIT		=  counts
*SCALE_MODE	=  1
*REP_COUNT	=  0
*SE_COUNT	=  0
*STD_MATERIAL	=  Unknown, Unknown, 0.000000, 0.000000, 0.000000, 0.000000, 0.000000, 0.000000
*LATT_CONS	=  0, Unknown, Unknown, 0.000000, 0.000000, 0.000000, 0.000000, 0.000000, 0.000000
*SEC_COUNT	=  1
*TSPEC_SIZE	=  0
*EXTRA_SIZE	=  0
*MEMO		=

*BEGIN
*GROUP		=  0
*START		=  0.4
*STOP		=  4.5
*STEP		=  0.01
*OFFSET		=  -0.027200
*SPEED		=  23.9588
*SLIT_SPEC	=  0, 1.000mm, 1, 0.000000
*SLIT_SPEC	=  1, 1.000mm, 1, 0.000000
*SLIT_SPEC	=  2, 1.000mm, 1, 0.000000
*KV		=  40
*MA		=  30
*LOW		=  0.000000
*HIGH		=  0.000000
*CTEMPER	=  0, 0.000000
*CTEMPER	=  1, 0.000000
*CTEMPER	=  2, 0.000000
*PAREX		=  0, 0.000000
*PAREX		=  1, 0.000000
*PAREX		=  2, 0.000000
*PAREX		=  3, 0.000000
*PAREX		=  4, 0.000000
*PAREX		=  5, 0.000000
*PAREX		=  6, 0.000000
*PAREX		=  7, 0.000000
*PAREX		=  8, 0.000000
*PAREX		=  9, 0.000000
*PAREX		=  10, 0.000000
*PAREX		=  11, 0.000000
*PAREX		=  12, 0.000000
*PAREX		=  13, 0.000000
*PAREX		=  14, 0.000000
*PAREX		=  15, 0.000000
*FULL_SCALE	=  163909
*INDEX		=  0, 0, 0
*COUNT		=  411
2531440.5, 2588418, 2645410, 2699129.5
2753106, 2804095, 2854224.5, 2903176.5
2947044, 2993242, 3031783.5, 3075985.5
3107053.5, 3140547.5, 3172423, 3195512.5
3218896, 3234338, 3242458, 3246582
3241740, 3232351, 3207337.5, 3168499.5
3115345, 3047579, 2951174.5, 2830658.8
2677648.3, 2483784.3, 2272298.3, 2049644.3
1838093.3, 1647400.8, 1485093.6, 1343544.6
1222329.6, 1116224.1, 1021015.6, 934871
857320, 786444, 721591, 663354
610281, 560260, 514863, 472660
434245, 400423, 366709, 336163
308952, 283976, 260528, 240467
220177, 203374, 187107, 173540
159982, 150037, 138479, 130186
121193, 114234, 108443, 102329
97468.5, 92887, 88760, 84825
81648, 78746, 76554, 74024
71818.5, 70105.5, 68182, 66300.5
64385.5, 63524.5, 61113, 60493
58973.5, 57581, 55746.5, 54763
53695, 52152.5, 50842.5, 49515
47973.5, 46848.5, 45280, 43307
42394.5, 41110, 39551, 37818
36508, 34889, 33680.5, 32382
31167.5, 29713.5, 28278.5, 27076
25783.5, 24649, 23736.5, 22658.5
21569, 20322.5, 19525.5, 18675
17982, 17056.5, 16162.5, 15645.5
14993, 14308.5, 13869.5, 13162.5
12913, 12184.5, 11735, 11305.5
11197, 10900, 10630, 10390
10205.5, 9928.5, 9955.5, 9658.5
9390, 9260.5, 9317.5, 9269.5
8973, 9068, 8919.5, 8822.5
8643.5, 8620.5, 8507, 8426
8294.5, 8177, 8128.5, 8095
8018, 7911.5, 7634.5, 7690
7608.5, 7357.5, 7251, 7130.5
6942, 6848.5, 6729, 6670.5
6387.5, 6378, 6149.5, 5972.5
5592.5, 5712.5, 5614.5, 5165
5089.5, 4949, 4717, 4676.5
4526.5, 4345.5, 4139, 4056.5
3965, 3773, 3744.5, 3579.5
3399.5, 3327.5, 3274.5, 3115.5
3069.5, 2992.5, 2832.5, 2815
2729, 2739.5, 2609, 2452
2551, 2508.5, 2402, 2368.5
2291, 2329.5, 2338.5, 2262
2240.5, 2239.5, 2241, 2174.5
2145.5, 2172.5, 2085, 2111.5
2215, 2132.5, 2202, 2130.5
2188, 2162.5, 2107.5, 2173
2188.5, 2184.5, 2113, 2140.5
2065, 2139, 2067, 2158.5
2040, 2077.5, 2070.5, 2100
2072, 2029.5, 2036.5, 1896.5
1989, 1931.5, 1915.5, 1805.5
1752.5, 1823.5, 1819, 1699.5
1702.5, 1692, 1596, 1663.5
1589, 1597, 1602.5, 1547
1506.5, 1489.5, 1387.5, 1385
1308, 1340, 1277, 1304
1239.5, 1170.5, 1176, 1197
1152, 1161, 1112, 1053.5
1075.5, 1002, 1016, 1135.5
1031.5, 958.5, 1038, 1146
961.5, 1056, 1023, 1026
999, 975.5, 1008.5, 1029
1021.5, 983.5, 1014.5, 1074.5
1031.5, 1037, 1081.5, 1009
1002, 1080.5, 985.5, 1000.5
1062.5, 1045.5, 1033, 994.5
1067.5, 1031.5, 1060, 1024
1054.5, 986, 1002, 1006.5
1011, 978.5, 1049.5, 999.5
983, 912.5, 1009.5, 1005
962.5, 954.5, 921.5, 919
914, 917.999, 862.5, 856
887, 819.5, 778.499, 801.5
779.5, 758.499, 769.5, 796.5
718, 741, 702, 752
698.5, 692.5, 685.5, 662
728.5, 639.999, 655.501, 598
671, 682.5, 705.5, 633.5
652.5, 641, 651.5, 582.5
602.5, 624.5, 653.5, 647.5
651.5, 599.5, 664, 656.5
675.5, 646.5, 698, 659.5
624.5, 723, 646.5, 656.5
682.5, 655.499, 689, 697.5
657, 660, 690, 716
686, 669.5, 601, 642.5
661.5, 659, 661, 614.5
656.001, 654.5, 644, 634.5
605.5, 615, 617, 622.5
594, 557, 562.499, 594
545, 593, 544, 549
517, 556.5, 549, 519
505.5, 501, 514, 509.5
526.5, 492.499, 501.001
*END

*EOF