File: XRD:XRR/SCO/22164_SL(CO)L/22164_SL(CO)L_XRD_001.csv
#twotheta, yobs, ycal, bkg, diff
17.0,39.0,1.0,1.0,1.0
17.05,52.0,1.0,1.0,1.0
17.1,34.504,1.0,1.0,1.0
17.15,38.496,1.0,1.0,1.0
17.2,42.0,1.0,1.0,1.0
17.25,50.0,1.0,1.0,1.0
17.3,38.0,1.0,1.0,1.0
17.35,38.008,1.0,1.0,1.0
17.4,40.496,1.0,1.0,1.0
17.45,38.0,1.0,1.0,1.0
17.5,48.5119,1.0,1.0,1.0
17.55,35.496,1.0,1.0,1.0
17.6,34.504,1.0,1.0,1.0
17.65,44.496,1.0,1.0,1.0
17.7,60.0,1.0,1.0,1.0
17.75,40.504,1.0,1.0,1.0
17.8,43.992,1.0,1.0,1.0
17.85,25.504,1.0,1.0,1.0
17.9,58.992,1.0,1.0,1.0
17.95,38.0,1.0,1.0,1.0
18.0,43.008,1.0,1.0,1.0
18.05,49.496,1.0,1.0,1.0
18.1,40.0,1.0,1.0,1.0
18.15,54.496,1.0,1.0,1.0
18.2,41.496,1.0,1.0,1.0
18.25,38.0,1.0,1.0,1.0
18.3,47.496,1.0,1.0,1.0
18.35,32.496,1.0,1.0,1.0
18.4,42.504,1.0,1.0,1.0
18.45,39.496,1.0,1.0,1.0
18.5,37.0,1.0,1.0,1.0
18.55,34.0,1.0,1.0,1.0
18.6,36.008,1.0,1.0,1.0
18.65,48.0,1.0,1.0,1.0
18.7,34.504,1.0,1.0,1.0
18.75,33.008,1.0,1.0,1.0
18.8,47.504,1.0,1.0,1.0
18.85,33.504,1.0,1.0,1.0
18.9,36.0,1.0,1.0,1.0
18.95,52.0,1.0,1.0,1.0
19.0,36.0,1.0,1.0,1.0
19.05,38.992,1.0,1.0,1.0
19.1,35.496,1.0,1.0,1.0
19.15,37.008,1.0,1.0,1.0
19.2,51.496,1.0,1.0,1.0
19.25,44.504,1.0,1.0,1.0
19.3,45.0,1.0,1.0,1.0
19.35,38.0,1.0,1.0,1.0
19.4,25.992,1.0,1.0,1.0
19.45,26.504,1.0,1.0,1.0
19.5,40.0,1.0,1.0,1.0
19.55,55.008,1.0,1.0,1.0
19.6,35.992,1.0,1.0,1.0
19.65,44.0,1.0,1.0,1.0
19.7,49.0,1.0,1.0,1.0
19.75,42.0,1.0,1.0,1.0
19.8,54.008,1.0,1.0,1.0
19.85,46.496,1.0,1.0,1.0
19.9,35.008,1.0,1.0,1.0
19.95,49.0,1.0,1.0,1.0
20.0,52.504,1.0,1.0,1.0
20.05,36.496,1.0,1.0,1.0
20.1,48.0,1.0,1.0,1.0
20.15,36.496,1.0,1.0,1.0
20.2,33.504,1.0,1.0,1.0
20.25,64.504,1.0,1.0,1.0
20.3,42.0,1.0,1.0,1.0
20.35,41.0,1.0,1.0,1.0
20.4,41.496,1.0,1.0,1.0
20.45,35.0,1.0,1.0,1.0
20.5,32.496,1.0,1.0,1.0
20.55,27.4881,1.0,1.0,1.0
20.6,40.008,1.0,1.0,1.0
20.65,33.504,1.0,1.0,1.0
20.7,53.0,1.0,1.0,1.0
20.75,52.0,1.0,1.0,1.0
20.8,54.0,1.0,1.0,1.0
20.85,46.0,1.0,1.0,1.0
20.9,45.504,1.0,1.0,1.0
20.95,42.504,1.0,1.0,1.0
21.0,46.504,1.0,1.0,1.0
21.05,49.992,1.0,1.0,1.0
21.1,59.9841,1.0,1.0,1.0
21.15,37.496,1.0,1.0,1.0
21.2,56.992,1.0,1.0,1.0
21.25,60.496,1.0,1.0,1.0
21.3,61.992,1.0,1.0,1.0
21.35,70.504,1.0,1.0,1.0
21.4,66.992,1.0,1.0,1.0
21.45,93.008,1.0,1.0,1.0
21.5,134.496,1.0,1.0,1.0
21.55,136.008,1.0,1.0,1.0
21.6,147.008,1.0,1.0,1.0
21.65,137.4881,1.0,1.0,1.0
21.7,122.008,1.0,1.0,1.0
21.75,108.008,1.0,1.0,1.0
21.8,108.9841,1.0,1.0,1.0
21.85,116.008,1.0,1.0,1.0
21.9,94.992,1.0,1.0,1.0
21.95,154.0,1.0,1.0,1.0
22.0,182.0,1.0,1.0,1.0
22.05,205.0,1.0,1.0,1.0
22.1,252.0239,1.0,1.0,1.0
22.15,251.008,1.0,1.0,1.0
22.2,252.4881,1.0,1.0,1.0
22.25,429.992,1.0,1.0,1.0
22.3,427.9681,1.0,1.0,1.0
22.35,443.0319,1.0,1.0,1.0
22.4,365.4881,1.0,1.0,1.0
22.45,362.5199,1.0,1.0,1.0
22.5,291.5119,1.0,1.0,1.0
22.55,208.496,1.0,1.0,1.0
22.6,177.5119,1.0,1.0,1.0
22.65,227.0159,1.0,1.0,1.0
22.7,311.4801,1.0,1.0,1.0
22.75,416.504,1.0,1.0,1.0
22.8,547.504,1.0,1.0,1.0
22.85,731.9841,1.0,1.0,1.0
22.9,1055.504,1.0,1.0,1.0
22.95,1293.488,1.0,1.0,1.0
23.0,1653.98,1.0,1.0,1.0
23.05,2001.48,1.0,1.0,1.0
23.1,2083.9,1.0,1.0,1.0
23.15,1727.97,1.0,1.0,1.0
23.2,1180.98,1.0,1.0,1.0
23.25,1218.512,1.0,1.0,1.0
23.3,2093.02,1.0,1.0,1.0
23.35,3646.11,1.0,1.0,1.0
23.4,12008.7,1.0,1.0,1.0
23.45,59362,1.0,1.0,1.0
23.5,371857,1.0,1.0,1.0
23.55,399166,1.0,1.0,1.0
23.6,9897.71,1.0,1.0,1.0
23.65,2848.93,1.0,1.0,1.0
23.7,1168.496,1.0,1.0,1.0
23.75,660.4721,1.0,1.0,1.0
23.8,421.9841,1.0,1.0,1.0
23.85,285.9602,1.0,1.0,1.0
23.9,360.9841,1.0,1.0,1.0
23.95,439.504,1.0,1.0,1.0
24.0,276.496,1.0,1.0,1.0
24.05,191.496,1.0,1.0,1.0
24.1,116.496,1.0,1.0,1.0
24.15,125.0,1.0,1.0,1.0
24.2,94.0,1.0,1.0,1.0
24.25,73.992,1.0,1.0,1.0
24.3,60.4881,1.0,1.0,1.0
24.35,70.0,1.0,1.0,1.0
24.4,55.504,1.0,1.0,1.0
24.45,64.504,1.0,1.0,1.0
24.5,50.0,1.0,1.0,1.0
24.55,41.4881,1.0,1.0,1.0
24.6,55.496,1.0,1.0,1.0
24.65,50.0,1.0,1.0,1.0
24.7,80.5119,1.0,1.0,1.0
24.75,58.496,1.0,1.0,1.0
24.8,42.5119,1.0,1.0,1.0
24.85,30.008,1.0,1.0,1.0
24.9,35.0,1.0,1.0,1.0
24.95,37.504,1.0,1.0,1.0
25.0,23.0,1.0,1.0,1.0
25.05,27.0,1.0,1.0,1.0
25.1,28.0,1.0,1.0,1.0
25.15,30.0,1.0,1.0,1.0
25.2,22.496,1.0,1.0,1.0
25.25,33.0,1.0,1.0,1.0
25.3,33.504,1.0,1.0,1.0
25.35,37.496,1.0,1.0,1.0
25.4,32.0,1.0,1.0,1.0
25.45,45.992,1.0,1.0,1.0
25.5,21.0,1.0,1.0,1.0
25.55,21.992,1.0,1.0,1.0
25.6,14.008,1.0,1.0,1.0
25.65,18.0,1.0,1.0,1.0
25.7,21.496,1.0,1.0,1.0
25.75,10.0,1.0,1.0,1.0
25.8,16.0,1.0,1.0,1.0
25.85,21.496,1.0,1.0,1.0
25.9,22.0,1.0,1.0,1.0
25.95,21.504,1.0,1.0,1.0
26.0,9.496,1.0,1.0,1.0
26.05,22.504,1.0,1.0,1.0
26.1,13.0,1.0,1.0,1.0
26.15,15.0,1.0,1.0,1.0
26.2,13.496,1.0,1.0,1.0
26.25,23.0,1.0,1.0,1.0
26.3,19.0,1.0,1.0,1.0
26.35,13.0,1.0,1.0,1.0
26.4,20.0,1.0,1.0,1.0
26.45,28.504,1.0,1.0,1.0
26.5,27.0,1.0,1.0,1.0
26.55,24.496,1.0,1.0,1.0
26.6,21.0,1.0,1.0,1.0
26.65,14.008,1.0,1.0,1.0
26.7,21.496,1.0,1.0,1.0
26.75,16.0,1.0,1.0,1.0
26.8,23.992,1.0,1.0,1.0
26.85,22.496,1.0,1.0,1.0
26.9,21.0,1.0,1.0,1.0
26.95,11.0,1.0,1.0,1.0
27.0,30.504,1.0,1.0,1.0
27.05,15.0,1.0,1.0,1.0
27.1,38.504,1.0,1.0,1.0
27.15,21.0,1.0,1.0,1.0
27.2,24.0,1.0,1.0,1.0
27.25,13.496,1.0,1.0,1.0
27.3,10.008,1.0,1.0,1.0
27.35,5.992,1.0,1.0,1.0
27.4,15.0,1.0,1.0,1.0
27.45,16.0,1.0,1.0,1.0
27.5,12.0,1.0,1.0,1.0
27.55,25.496,1.0,1.0,1.0
27.6,21.0,1.0,1.0,1.0
27.65,9.0,1.0,1.0,1.0
27.7,11.0,1.0,1.0,1.0
27.75,6.504,1.0,1.0,1.0
27.8,18.0,1.0,1.0,1.0
27.85,18.0,1.0,1.0,1.0
27.9,6.0,1.0,1.0,1.0
27.95,12.0,1.0,1.0,1.0
28.0,15.504,1.0,1.0,1.0
28.05,9.504,1.0,1.0,1.0
28.1,9.008,1.0,1.0,1.0
28.15,14.0,1.0,1.0,1.0
28.2,16.0,1.0,1.0,1.0
28.25,18.0,1.0,1.0,1.0
28.3,11.0,1.0,1.0,1.0
28.35,22.0,1.0,1.0,1.0
28.4,4.0,1.0,1.0,1.0
28.45,13.504,1.0,1.0,1.0
28.5,5.0,1.0,1.0,1.0
28.55,10.0,1.0,1.0,1.0
28.6,25.0,1.0,1.0,1.0
28.65,15.504,1.0,1.0,1.0
28.7,11.0,1.0,1.0,1.0
28.75,19.496,1.0,1.0,1.0
28.8,7.0,1.0,1.0,1.0
28.85,11.0,1.0,1.0,1.0
28.9,17.496,1.0,1.0,1.0
28.95,17.0,1.0,1.0,1.0
29.0,12.504,1.0,1.0,1.0