File: XRD:XRR/SCO/22164_SL(CO)L/22164_SL(CO)L_XRD_001_2-Theta_Omega.asc
*TYPE		=  Raw
*CLASS		=  ASCII CLASS
*SAMPLE		=
*COMMENT	=
*FNAME		=  22164_SL(CO)L_XRD_001_2-Theta_Omega.asc
*DATE		=  09-Dec-22 01:38

*GROUP_COUNT	=  1
*GONIO		=  SmartLab(In-plane), 0.000000
*ATTACHMENT	=  Z-Phi Stage
*ASC		=  0, 0, 0.000000, 0.000000
*I_MONOCHRO	=  Ge(220)x2, 0.000000
*FILTER		=  None
*C_MONOCHRO	=  None, 0.000000
*SLIT_NAME	=  0, Incident slit
*SLIT_NAME	=  1, Receiving slit # 1
*SLIT_NAME	=  2, Receiving slit # 2
*COUNTER	=  D/teX Ultra 250, 0
*POS_FORMAT	=  0
*SCAN_AXIS	=  2Theta/Omega
*MEAS_MODE	=  Continuous Scanning
*TARGET		=  29
*XRAY_CHAR	=  K-ALPHA1
*WAVE_LENGTH1	=  1.54059
*WAVE_LENGTH2	=  1.54441
*THICKNESS	=  0, 0.000000
*MU		=  0, 0.000000
*SCAN_MODE	=  2Theta/Omega
*SPEED_DIM	=  sec./step
*XUNIT		=  deg.
*YUNIT		=  counts
*SCALE_MODE	=  1
*REP_COUNT	=  0
*SE_COUNT	=  0
*STD_MATERIAL	=  Unknown, Unknown, 0.000000, 0.000000, 0.000000, 0.000000, 0.000000, 0.000000
*LATT_CONS	=  0, Unknown, Unknown, 0.000000, 0.000000, 0.000000, 0.000000, 0.000000, 0.000000
*SEC_COUNT	=  1
*TSPEC_SIZE	=  0
*EXTRA_SIZE	=  0
*MEMO		=

*BEGIN
*GROUP		=  0
*START		=  17
*STOP		=  29
*STEP		=  0.01
*OFFSET		=  0.1607
*SPEED		=  23.9588
*SLIT_SPEC	=  0, 0.400mm, 0.4, 0.000000
*SLIT_SPEC	=  1, 0.400mm, 0.4, 0.000000
*SLIT_SPEC	=  2, 0.400mm, 0.4, 0.000000
*KV		=  40
*MA		=  30
*LOW		=  0.000000
*HIGH		=  0.000000
*CTEMPER	=  0, 0.000000
*CTEMPER	=  1, 0.000000
*CTEMPER	=  2, 0.000000
*PAREX		=  0, 0.000000
*PAREX		=  1, 0.000000
*PAREX		=  2, 0.000000
*PAREX		=  3, 0.000000
*PAREX		=  4, 0.000000
*PAREX		=  5, 0.000000
*PAREX		=  6, 0.000000
*PAREX		=  7, 0.000000
*PAREX		=  8, 0.000000
*PAREX		=  9, 0.000000
*PAREX		=  10, 0.000000
*PAREX		=  11, 0.000000
*PAREX		=  12, 0.000000
*PAREX		=  13, 0.000000
*PAREX		=  14, 0.000000
*PAREX		=  15, 0.000000
*FULL_SCALE	=  249160
*INDEX		=  0, 0, 0
*COUNT		=  1201
39, 33.5199, 54.9841, 42
50, 35, 34.504, 35.496
53.504, 17.496, 31.504, 26.496
33.992, 50, 33, 37.504
30.992, 36, 29, 38.008
40.496, 59.008, 31.992, 46
39.008, 48.992, 48.5119, 26.4881
32.504, 35.496, 37.504, 44.496
46.008, 44.496, 33.496, 54.008
47, 43.008, 41.992, 40.504
43.992, 32, 41, 54.504
24, 37.5119, 58.992, 43.496
48.008, 30.992, 41.504, 38.496
47.504, 49.496, 36.496, 47
40.008, 34.496, 18, 54.496
41.496, 26.496, 31, 27.504
36.008, 41.496, 47.496, 51.008
40.496, 43, 48.504, 38
54, 39.496, 27.504, 39.496
40.496, 16, 25, 34
36.008, 36, 51.504, 28.4881
35.496, 30, 34.504, 25.496
38, 39.504, 42.992, 30.496
29, 33.504, 44.496, 32
37.496, 46, 36.504, 52
36, 30, 30.008, 37.992
34, 19.504, 35.496, 41.008
38.496, 45, 38.496, 31.008
43.992, 44.504, 38.992, 43.008
38.504, 52.496, 24, 38
25.992, 39, 31.504, 41.496
54, 52.496, 40, 34.008
33, 42.992, 39, 48.008
30, 44, 39, 42
43, 18, 35, 42
54.008, 30, 43.992, 30.504
45, 30.504, 35.008, 42.496
51, 47.008, 56.5119, 48.4801
54.496, 36.496, 63, 44
40, 44.008, 38.496, 36.496
33.504, 36.008, 49.992, 42.504
38.4881, 32.504, 42, 55.496
35, 31.496, 34.504, 33
37, 35, 34, 24.504
29, 31.504, 34.008, 27.4881
40.008, 31.992, 32, 27
29.504, 47.496, 53, 46.504
50, 29.496, 41, 39
37, 46, 57.504, 46.504
42.496, 34, 38.496, 42.504
46.504, 40.504, 63.992, 45
54.008, 43.008, 59.9841, 56
56.504, 51.992, 43.504, 60
42.008, 60.496, 53.504, 59.992
75.008, 65, 75.992, 70.504
66.992, 59, 87.008, 72.496
87, 94.496, 134.496, 112
135.992, 155, 145.504, 129.992
124.024, 137.488, 139, 133.008
120.504, 97.4881, 107.504, 108.008
108.984, 104.008, 141.504, 106.496
120, 89.0159, 94.992, 147.008
136, 161, 181.496, 159.512
236.496, 205, 225.504, 244
250.016, 251.488, 277.496, 251.008
252.488, 314, 354.52, 336.008
390.016, 393.512, 427.968, 395.024
398.464, 406.016, 366.496, 353.488
399.488, 362.52, 357.472, 340.512
223.48, 266.008, 214.504, 208.496
177.512, 211.496, 194.992, 208
280, 264, 311.48, 296.008
418.992, 440.496, 492.008, 509.984
718.488, 731.984, 879.008, 821.536
1062.53, 1187.49, 1299.01, 1293.49
1653.98, 1705.52, 1933, 1905.5
2090.48, 2055.08, 2083.9, 1962.54
1632.98, 1446.5, 1279, 1175.49
1074.02, 1218.51, 1292.47, 1519.04
2609.51, 2906.54, 3328.92, 3646.11
12008.7, 17380.4, 23892.7, 32907.8
137658, 205948, 371857, 915194
84117.6, 38107.7, 21819.6, 14232.9
3507.94, 2848.93, 2296.51, 1877.99
880.448, 806.528, 751.008, 660.472
421.984, 322, 336.504, 322.504
374, 321, 360.984, 406.008
386.496, 384.52, 364.984, 338.008
224.496, 191.496, 176.504, 144.488
123.504, 103.496, 112, 125
94, 100.504, 82.496, 104.008
93.496, 65, 60.4881, 58
63.008, 75, 53.496, 68.496
72.504, 64.504, 51, 51
53.504, 37.992, 65.5119, 41.4881
55.496, 42.496, 78.5119, 60.9841
67.5119, 62.9841, 80.5119, 49.4881
67.008, 43.496, 53, 55.496
45.496, 30.008, 44.992, 43.504
32.9841, 37.504, 48.496, 37.504
23, 36.496, 41, 44.504
39.504, 40.496, 28, 41.008
30.5119, 45.992, 44.504, 53.496
39, 33, 42.504, 29.496
36, 40.504, 29, 37.496
32, 34.008, 31.992, 25.5119
17.504, 33.496, 21, 27.504
22, 17, 22.008, 34.992
22, 18, 20, 17.504
27.992, 25.008, 18.992, 10
16, 9, 18, 28
23, 34, 22, 12
32.496, 23, 17.008, 26.496
15.496, 22.504, 23, 22.496
22, 17.496, 38, 15
13.496, 14.504, 13.496, 11
26, 22, 19, 23
27, 20, 20.504, 21.496
16, 28.504, 16.496, 18.504
14, 11.008, 27.496, 24.496
21, 12, 9, 23
13, 14.496, 21.496, 23.504
18, 35, 15, 14.008
17.008, 22.496, 20.496, 16
16.496, 33.008, 20.992, 11
30.504, 42.992, 13, 23.504
29.496, 13, 38.504, 38.496
25, 20, 19, 10
22.504, 13.496, 16, 12.504
20.496, 19, 12.008, 5.99203
15, 16, 31, 19.504
13, 17, 12, 21
12, 12, 20, 16
11.496, 9, 18.504, 20.496
10.008, 17.992, 17, 6.50398
18, 8, 24, 12
13.504, 17.496, 6, 15.008
16, 13, 11, 16
12, 9.50398, 19.496, 13
15.496, 16.008, 12.992, 14
16, 18, 23, 17
12.504, 24.496, 11, 19
15, 18, 9.00797, 13.992
2, 13.504, 9.49602, 17
18, 11, 19, 10
25, 20, 12, 11.504
17, 16, 11, 17
13.504, 27.496, 12, 16
22, 11, 12.504, 22.496
6, 10, 13, 17
12.504
*END

*EOF