File: XRD:XRR/SCO/22164_SL(CO)L/22164_SL(CO)L_002_XRD.csv
#twotheta, yobs, ycal, bkg, diff
40.0,36.5278,1.0,1.0,1.0
40.05,22.5056,1.0,1.0,1.0
40.1,37.0111,1.0,1.0,1.0
40.15,30.4944,1.0,1.0,1.0
40.2,31.5056,1.0,1.0,1.0
40.25,40.5056,1.0,1.0,1.0
40.3,30.5056,1.0,1.0,1.0
40.35,27.0,1.0,1.0,1.0
40.4,32.4944,1.0,1.0,1.0
40.45,23.0,1.0,1.0,1.0
40.5,33.4944,1.0,1.0,1.0
40.55,45.0111,1.0,1.0,1.0
40.6,26.0,1.0,1.0,1.0
40.65,34.5056,1.0,1.0,1.0
40.7,21.0,1.0,1.0,1.0
40.75,25.0,1.0,1.0,1.0
40.8,18.0,1.0,1.0,1.0
40.85,22.0,1.0,1.0,1.0
40.9,20.0,1.0,1.0,1.0
40.95,19.0,1.0,1.0,1.0
41.0,32.0,1.0,1.0,1.0
41.05,23.5056,1.0,1.0,1.0
41.1,27.0,1.0,1.0,1.0
41.15,32.0,1.0,1.0,1.0
41.2,32.4944,1.0,1.0,1.0
41.25,37.4944,1.0,1.0,1.0
41.3,30.0,1.0,1.0,1.0
41.35,38.4833,1.0,1.0,1.0
41.4,40.9889,1.0,1.0,1.0
41.45,44.0,1.0,1.0,1.0
41.5,36.5056,1.0,1.0,1.0
41.55,39.0,1.0,1.0,1.0
41.6,30.0,1.0,1.0,1.0
41.65,26.5056,1.0,1.0,1.0
41.7,32.4944,1.0,1.0,1.0
41.75,35.4944,1.0,1.0,1.0
41.8,38.4944,1.0,1.0,1.0
41.85,34.5056,1.0,1.0,1.0
41.9,23.0,1.0,1.0,1.0
41.95,38.0111,1.0,1.0,1.0
42.0,42.0,1.0,1.0,1.0
42.05,34.0,1.0,1.0,1.0
42.1,28.4944,1.0,1.0,1.0
42.15,32.9889,1.0,1.0,1.0
42.2,29.4944,1.0,1.0,1.0
42.25,31.0,1.0,1.0,1.0
42.3,29.9889,1.0,1.0,1.0
42.35,31.0,1.0,1.0,1.0
42.4,62.0111,1.0,1.0,1.0
42.45,38.4944,1.0,1.0,1.0
42.5,42.4944,1.0,1.0,1.0
42.55,29.0111,1.0,1.0,1.0
42.6,48.0,1.0,1.0,1.0
42.65,51.0,1.0,1.0,1.0
42.7,33.0111,1.0,1.0,1.0
42.75,43.0,1.0,1.0,1.0
42.8,42.5056,1.0,1.0,1.0
42.85,64.4944,1.0,1.0,1.0
42.9,35.0111,1.0,1.0,1.0
42.95,38.0,1.0,1.0,1.0
43.0,33.5056,1.0,1.0,1.0
43.05,39.0,1.0,1.0,1.0
43.1,46.5056,1.0,1.0,1.0
43.15,22.0,1.0,1.0,1.0
43.2,25.5056,1.0,1.0,1.0
43.25,40.0,1.0,1.0,1.0
43.3,31.0,1.0,1.0,1.0
43.35,35.4944,1.0,1.0,1.0
43.4,36.0,1.0,1.0,1.0
43.45,35.0111,1.0,1.0,1.0
43.5,31.4944,1.0,1.0,1.0
43.55,36.0,1.0,1.0,1.0
43.6,29.5056,1.0,1.0,1.0
43.65,39.0,1.0,1.0,1.0
43.7,46.4944,1.0,1.0,1.0
43.75,23.0,1.0,1.0,1.0
43.8,49.4944,1.0,1.0,1.0
43.85,51.5056,1.0,1.0,1.0
43.9,57.5056,1.0,1.0,1.0
43.95,66.0111,1.0,1.0,1.0
44.0,89.9778,1.0,1.0,1.0
44.05,109.0,1.0,1.0,1.0
44.1,77.0,1.0,1.0,1.0
44.15,80.4833,1.0,1.0,1.0
44.2,97.0,1.0,1.0,1.0
44.25,103.5167,1.0,1.0,1.0
44.3,111.0111,1.0,1.0,1.0
44.35,139.5056,1.0,1.0,1.0
44.4,165.0333,1.0,1.0,1.0
44.45,208.0111,1.0,1.0,1.0
44.5,220.4944,1.0,1.0,1.0
44.55,274.5389,1.0,1.0,1.0
44.6,280.9667,1.0,1.0,1.0
44.65,308.9778,1.0,1.0,1.0
44.7,308.4722,1.0,1.0,1.0
44.75,296.55,1.0,1.0,1.0
44.8,226.0222,1.0,1.0,1.0
44.85,162.9889,1.0,1.0,1.0
44.9,184.0,1.0,1.0,1.0
44.95,189.0,1.0,1.0,1.0
45.0,181.0111,1.0,1.0,1.0
45.05,177.5056,1.0,1.0,1.0
45.1,279.5167,1.0,1.0,1.0
45.15,402.9778,1.0,1.0,1.0
45.2,586.4722,1.0,1.0,1.0
45.25,769.4722,1.0,1.0,1.0
45.3,1082.02,1.0,1.0,1.0
45.35,1354.51,1.0,1.0,1.0
45.4,1545.44,1.0,1.0,1.0
45.45,1714.0,1.0,1.0,1.0
45.5,1783.43,1.0,1.0,1.0
45.55,1705.49,1.0,1.0,1.0
45.6,1697.55,1.0,1.0,1.0
45.65,1695.97,1.0,1.0,1.0
45.7,1615.02,1.0,1.0,1.0
45.75,1488.53,1.0,1.0,1.0
45.8,1203.0,1.0,1.0,1.0
45.85,876.9778,1.0,1.0,1.0
45.9,632.5056,1.0,1.0,1.0
45.95,599.5056,1.0,1.0,1.0
46.0,801.9667,1.0,1.0,1.0
46.05,1140.48,1.0,1.0,1.0
46.1,1733.01,1.0,1.0,1.0
46.15,2679.41,1.0,1.0,1.0
46.2,3731.02,1.0,1.0,1.0
46.25,4692.91,1.0,1.0,1.0
46.3,5647.07,1.0,1.0,1.0
46.35,6159.53,1.0,1.0,1.0
46.4,6410.561,1.0,1.0,1.0
46.45,6689.08,1.0,1.0,1.0
46.5,7121.66,1.0,1.0,1.0
46.55,7408.58,1.0,1.0,1.0
46.6,7523.74,1.0,1.0,1.0
46.65,7203.14,1.0,1.0,1.0
46.7,6384.0,1.0,1.0,1.0
46.75,5541.92,1.0,1.0,1.0
46.8,4661.37,1.0,1.0,1.0
46.85,3751.47,1.0,1.0,1.0
46.9,3053.52,1.0,1.0,1.0
46.95,2629.03,1.0,1.0,1.0
47.0,2224.01,1.0,1.0,1.0
47.05,2409.98,1.0,1.0,1.0
47.1,3018.55,1.0,1.0,1.0
47.15,3745.561,1.0,1.0,1.0
47.2,4576.39,1.0,1.0,1.0
47.25,4765.57,1.0,1.0,1.0
47.3,4339.0,1.0,1.0,1.0
47.35,3600.1,1.0,1.0,1.0
47.4,2700.0,1.0,1.0,1.0
47.45,2086.01,1.0,1.0,1.0
47.5,1629.55,1.0,1.0,1.0
47.55,1499.93,1.0,1.0,1.0
47.6,1846.01,1.0,1.0,1.0
47.65,2344.52,1.0,1.0,1.0
47.7,3482.51,1.0,1.0,1.0
47.75,5325.99,1.0,1.0,1.0
47.8,9560.34,1.0,1.0,1.0
47.85,24326,1.0,1.0,1.0
47.9,161718,1.0,1.0,1.0
47.95,13230557.0,1.0,1.0,1.0
48.0,340290,1.0,1.0,1.0
48.05,70426,1.0,1.0,1.0
48.1,22643.2,1.0,1.0,1.0
48.15,9269.13,1.0,1.0,1.0
48.2,4345.52,1.0,1.0,1.0
48.25,2559.52,1.0,1.0,1.0
48.3,1734.51,1.0,1.0,1.0
48.35,1239.07,1.0,1.0,1.0
48.4,891.5833,1.0,1.0,1.0
48.45,664.5056,1.0,1.0,1.0
48.5,575.9778,1.0,1.0,1.0
48.55,441.0555,1.0,1.0,1.0
48.6,361.55,1.0,1.0,1.0
48.65,331.55,1.0,1.0,1.0
48.7,261.9667,1.0,1.0,1.0
48.75,215.5056,1.0,1.0,1.0
48.8,194.9889,1.0,1.0,1.0
48.85,170.0,1.0,1.0,1.0
48.9,183.4944,1.0,1.0,1.0
48.95,180.5056,1.0,1.0,1.0
49.0,188.4944,1.0,1.0,1.0
49.05,153.5056,1.0,1.0,1.0
49.1,127.5278,1.0,1.0,1.0
49.15,110.4833,1.0,1.0,1.0
49.2,92.0,1.0,1.0,1.0
49.25,64.5056,1.0,1.0,1.0
49.3,64.4944,1.0,1.0,1.0
49.35,43.4944,1.0,1.0,1.0
49.4,58.4944,1.0,1.0,1.0
49.45,49.9889,1.0,1.0,1.0
49.5,42.0,1.0,1.0,1.0
49.55,55.4944,1.0,1.0,1.0
49.6,55.9889,1.0,1.0,1.0
49.65,52.4944,1.0,1.0,1.0
49.7,51.5056,1.0,1.0,1.0
49.75,35.5056,1.0,1.0,1.0
49.8,49.0,1.0,1.0,1.0
49.85,41.5056,1.0,1.0,1.0
49.9,24.5167,1.0,1.0,1.0
49.95,53.4944,1.0,1.0,1.0
50.0,40.9889,1.0,1.0,1.0
50.05,24.0111,1.0,1.0,1.0
50.1,44.0,1.0,1.0,1.0
50.15,51.0,1.0,1.0,1.0
50.2,24.0,1.0,1.0,1.0
50.25,32.5056,1.0,1.0,1.0
50.3,39.5056,1.0,1.0,1.0
50.35,33.5056,1.0,1.0,1.0
50.4,36.4944,1.0,1.0,1.0
50.45,29.0111,1.0,1.0,1.0
50.5,29.0,1.0,1.0,1.0
50.55,20.0,1.0,1.0,1.0
50.6,27.9889,1.0,1.0,1.0
50.65,43.5056,1.0,1.0,1.0
50.7,28.0,1.0,1.0,1.0
50.75,17.4944,1.0,1.0,1.0
50.8,35.9889,1.0,1.0,1.0
50.85,51.4944,1.0,1.0,1.0
50.9,29.0,1.0,1.0,1.0
50.95,21.5056,1.0,1.0,1.0
51.0,29.5056,1.0,1.0,1.0
51.05,26.4944,1.0,1.0,1.0
51.1,20.4944,1.0,1.0,1.0
51.15,30.0,1.0,1.0,1.0
51.2,41.4944,1.0,1.0,1.0
51.25,27.0,1.0,1.0,1.0
51.3,24.4944,1.0,1.0,1.0
51.35,11.9889,1.0,1.0,1.0
51.4,25.5056,1.0,1.0,1.0
51.45,34.9889,1.0,1.0,1.0
51.5,27.5056,1.0,1.0,1.0
51.55,20.5056,1.0,1.0,1.0
51.6,39.0,1.0,1.0,1.0
51.65,20.5056,1.0,1.0,1.0
51.7,16.0,1.0,1.0,1.0
51.75,37.0,1.0,1.0,1.0
51.8,33.4944,1.0,1.0,1.0
51.85,25.4944,1.0,1.0,1.0
51.9,22.4944,1.0,1.0,1.0
51.95,28.5056,1.0,1.0,1.0
52.0,14.0111,1.0,1.0,1.0
52.05,29.0,1.0,1.0,1.0
52.1,41.9889,1.0,1.0,1.0
52.15,23.4833,1.0,1.0,1.0
52.2,35.4944,1.0,1.0,1.0
52.25,22.5056,1.0,1.0,1.0
52.3,46.0111,1.0,1.0,1.0
52.35,29.4944,1.0,1.0,1.0
52.4,20.0,1.0,1.0,1.0
52.45,17.0,1.0,1.0,1.0
52.5,18.4944,1.0,1.0,1.0
52.55,27.5056,1.0,1.0,1.0
52.6,30.5056,1.0,1.0,1.0
52.65,32.0,1.0,1.0,1.0
52.7,36.9889,1.0,1.0,1.0
52.75,18.4944,1.0,1.0,1.0
52.8,15.0,1.0,1.0,1.0
52.85,19.0,1.0,1.0,1.0
52.9,16.5056,1.0,1.0,1.0
52.95,26.0,1.0,1.0,1.0
53.0,32.9889,1.0,1.0,1.0
53.05,24.4944,1.0,1.0,1.0
53.1,36.0,1.0,1.0,1.0
53.15,21.0,1.0,1.0,1.0
53.2,29.5056,1.0,1.0,1.0
53.25,40.0,1.0,1.0,1.0
53.3,20.0,1.0,1.0,1.0
53.35,33.0,1.0,1.0,1.0
53.4,25.0,1.0,1.0,1.0
53.45,26.0,1.0,1.0,1.0
53.5,10.5056,1.0,1.0,1.0
53.55,24.4944,1.0,1.0,1.0
53.6,17.0,1.0,1.0,1.0
53.65,13.0,1.0,1.0,1.0
53.7,24.0,1.0,1.0,1.0
53.75,19.0,1.0,1.0,1.0
53.8,25.5056,1.0,1.0,1.0
53.85,31.5056,1.0,1.0,1.0
53.9,44.5056,1.0,1.0,1.0
53.95,8.4944,1.0,1.0,1.0
54.0,28.5056,1.0,1.0,1.0