File: XRD:XRR/SCO/22164_SL(CO)L/22164_SL(CO)L_002_XRD_2-Theta_Omega.asc
*TYPE		=  Raw
*CLASS		=  ASCII CLASS
*SAMPLE		=
*COMMENT	=
*FNAME		=  22164_SL(CO)L_002_XRD_2-Theta_Omega.asc
*DATE		=  24-Nov-22 18:02

*GROUP_COUNT	=  1
*GONIO		=  SmartLab(In-plane), 0.000000
*ATTACHMENT	=  Z-Phi Stage
*ASC		=  0, 0, 0.000000, 0.000000
*I_MONOCHRO	=  Ge(220)x2, 0.000000
*FILTER		=  None
*C_MONOCHRO	=  None, 0.000000
*SLIT_NAME	=  0, Incident slit
*SLIT_NAME	=  1, Receiving slit # 1
*SLIT_NAME	=  2, Receiving slit # 2
*COUNTER	=  D/teX Ultra 250, 0
*POS_FORMAT	=  0
*SCAN_AXIS	=  2Theta/Omega
*MEAS_MODE	=  Continuous Scanning
*TARGET		=  29
*XRAY_CHAR	=  K-ALPHA1
*WAVE_LENGTH1	=  1.54059
*WAVE_LENGTH2	=  1.54441
*THICKNESS	=  0, 0.000000
*MU		=  0, 0.000000
*SCAN_MODE	=  2Theta/Omega
*SPEED_DIM	=  sec./step
*XUNIT		=  deg.
*YUNIT		=  counts
*SCALE_MODE	=  1
*REP_COUNT	=  0
*SE_COUNT	=  0
*STD_MATERIAL	=  Unknown, Unknown, 0.000000, 0.000000, 0.000000, 0.000000, 0.000000, 0.000000
*LATT_CONS	=  0, Unknown, Unknown, 0.000000, 0.000000, 0.000000, 0.000000, 0.000000, 0.000000
*SEC_COUNT	=  1
*TSPEC_SIZE	=  0
*EXTRA_SIZE	=  0
*MEMO		=

*BEGIN
*GROUP		=  0
*START		=  40
*STOP		=  54
*STEP		=  0.01
*OFFSET		=  0.0334
*SPEED		=  17.1013
*SLIT_SPEC	=  0, 0.600mm, 0.6, 0.000000
*SLIT_SPEC	=  1, 0.600mm, 0.6, 0.000000
*SLIT_SPEC	=  2, 0.600mm, 0.6, 0.000000
*KV		=  40
*MA		=  30
*LOW		=  0.000000
*HIGH		=  0.000000
*CTEMPER	=  0, 0.000000
*CTEMPER	=  1, 0.000000
*CTEMPER	=  2, 0.000000
*PAREX		=  0, 0.000000
*PAREX		=  1, 0.000000
*PAREX		=  2, 0.000000
*PAREX		=  3, 0.000000
*PAREX		=  4, 0.000000
*PAREX		=  5, 0.000000
*PAREX		=  6, 0.000000
*PAREX		=  7, 0.000000
*PAREX		=  8, 0.000000
*PAREX		=  9, 0.000000
*PAREX		=  10, 0.000000
*PAREX		=  11, 0.000000
*PAREX		=  12, 0.000000
*PAREX		=  13, 0.000000
*PAREX		=  14, 0.000000
*PAREX		=  15, 0.000000
*FULL_SCALE	=  1156636.1
*INDEX		=  0, 0, 0
*COUNT		=  1401
36.5278, 36, 24, 35
43.5056, 24.4944, 37.0111, 23.4944
35.5056, 33.4944, 33.4944, 28
28.4944, 40.5056, 31, 35.9889
29.9889, 34.0111, 26, 27
32.4944, 40.5056, 36, 38
24.4944, 21.5056, 33.4944, 24.5056
34, 29, 26, 32.4944
38.4944, 34.5056, 30, 20.4944
24, 43, 32.5056, 25
18, 35.4944, 45.0111, 32.9889
32.4944, 37.5056, 20, 34
35.4944, 31.4944, 20.0111, 25.9889
41.4944, 23.5056, 37.5056, 41
28.9889, 44.0111, 43, 32
32.4944, 35.0111, 29, 22
42.5056, 28, 30, 52
37.0111, 33.9889, 43.0111, 34.5056
33, 44, 31.4944, 38.5056
36.4944, 51, 20, 39
30, 43.4944, 33.5056, 37
44.4944, 32.5056, 32.4944, 40
29.4833, 19.0222, 49.9889, 55.5056
30.4944, 34.5056, 41.4944, 29.5056
32, 32, 30.9889, 38.0111
42, 39, 31, 25.5056
33.4944, 30.5056, 28.4944, 42
36.0111, 32, 38, 43
50.5056, 31, 47, 27.4944
32, 20, 32, 31
62.0111, 33.4944, 43.4944, 45.5167
40.4944, 39, 42.4944, 53.0111
39.9778, 55.0111, 49.0111, 40
39.0111, 51, 61.9889, 42.0111
49, 39.4944, 40.5056, 43
42.5056, 38, 53.9889, 42.5056
50.5167, 37.4944, 35.0111, 56.4944
43.5056, 38, 25.4944, 36
51.0111, 39, 44.4944, 34
40.4944, 34.4944, 19.0111, 22
25.5056, 31, 60, 38
20.9889, 16.0111, 31, 20
27.5056, 29.9889, 46.0111, 51.5056
40.4944, 35.0111, 24.4944, 31.5056
45.4944, 46.4944, 45.5056, 36
29.5056, 49, 36.4944, 60.5056
41, 50, 46.4944, 42.4944
39.9889, 75.5056, 38.5056, 58.4944
58.5056, 51.5056, 72.9889, 55.5056
71.9889, 62.4944, 75.5056, 66.0111
89.9778, 135.011, 97.0111, 109
92, 69.4944, 77, 74.5167
69.5056, 92, 78, 82.4944
82.4944, 103.517, 108.989, 86.4944
138.494, 98.5167, 109.978, 139.506
165.033, 174.472, 184.517, 175
230.517, 199.517, 220.494, 245.483
267.494, 265.978, 293.483, 339.011
314.011, 308.978, 292.517, 285.978
308.506, 284.494, 277.967, 296.55
226.022, 234.989, 279.506, 211
216.483, 197.011, 184, 192.978
191.517, 161.989, 170.494, 186.989
190.483, 177.506, 187.506, 213.989
282.528, 317.461, 358.022, 402.978
586.472, 622.517, 654.967, 748.989
961.033, 969, 1082.02, 1110.46
1307.92, 1430.02, 1485.51, 1514.02
1710.42, 1714, 1792.61, 1784.44
1844.89, 1804.12, 1786.98, 1705.49
1697.55, 1720, 1767.47, 1731.03
1703.92, 1726, 1615.02, 1659.01
1429.02, 1351.54, 1380.43, 1196.03
965.528, 876.978, 810.494, 785.483
669.483, 611.539, 665.472, 599.506
801.967, 812, 886.494, 972.956
1493.52, 1585.97, 1733.01, 1958.98
3001.46, 3123.53, 3276.52, 3613.9
4394.99, 4692.91, 4685.97, 4991.09
5897.93, 6031.54, 6041.45, 6159.53
6410.56, 6504, 6771.41, 6804.97
6896.92, 7114.93, 7121.66, 7141.46
7556.58, 7766.26, 7645.67, 7648.96
7369.52, 7203.14, 6953.46, 6908.92
6059.91, 5799.65, 5733.52, 5541.92
4661.37, 4459.59, 4346.56, 4098.59
3431.06, 3090.01, 3053.52, 3004.91
2493.59, 2306.92, 2318.01, 2253.46
2328.53, 2409.98, 2508.07, 2534.91
3347.81, 3340.03, 3522.49, 3745.56
4576.39, 4588.11, 4664.52, 4744.43
4648.94, 4393.58, 4339, 4257.09
3293.97, 3135.17, 3039.81, 2827.59
2169.48, 2086.01, 1960.47, 1845.12
1609.57, 1523.96, 1507.03, 1499.93
1846.01, 1772.01, 1935.99, 2123.97
3049.52, 3283.49, 3482.51, 3696.48
5756.03, 6749.37, 7479.33, 8383.09
19114.7, 24326, 31658.5, 43293.9
2748864.8, 5577043, 11442470, 13230557
340290, 227190, 162757, 119896
34689.4, 27882.9, 22643.2, 18421.8
7923.19, 6774.73, 5852.04, 5041.56
2786, 2559.52, 2288.47, 2214.09
1502.46, 1406.54, 1339.47, 1239.07
891.583, 847.45, 808.506, 759
606.528, 588.494, 575.978, 502.967
433.461, 395.011, 378.989, 459.494
348.472, 331.55, 316.483, 270.472
254.528, 247.956, 224.528, 215.506
194.989, 192.011, 186.483, 202.506
210.472, 201.528, 183.494, 156
167, 160.483, 201.506, 182.011
149.517, 153.506, 131.967, 145.506
136.989, 84.4944, 103, 110.483
92, 80, 86.0111, 100
82, 68.4944, 64.4944, 73.5056
74.5167, 67, 79.9889, 69.5056
44.0111, 49.9889, 51, 54.4944
50, 48.9889, 51.0111, 55.4944
55.9889, 58, 62, 47.4944
47.4944, 42.4944, 51.5056, 54.5056
55, 47, 29.9889, 44
44.4944, 41.5056, 40.4944, 37.0111
46, 41, 43, 53.4944
40.9889, 30.0111, 46.4944, 53.4944
36.5056, 41, 44, 41.9889
35, 29.5056, 34.4944, 29
45.9889, 32.5056, 31.5056, 32.5056
35, 39.4944, 46.4944, 33.5056
36.4944, 35, 45.5056, 41.9778
29, 38.5056, 29, 21.5056
8, 29.4944, 24.5056, 32
25.4944, 43.5056, 35, 26
29.0111, 40, 17, 17.4944
35.9889, 28.5056, 43, 39.4944
34.5056, 45, 29, 38.9889
23, 38, 27, 41.4944
36.4944, 26.4944, 40.4944, 27.5056
33, 25, 30, 30
41.4944, 31.5056, 26, 17
35, 25, 24.4944, 15.5056
27.0111, 33, 7.98889, 41.5056
27, 34.9889, 27.0111, 19
25, 20.4944, 37, 20.5056
39, 39, 25, 25
15, 27, 16, 18
17, 20, 24.4944, 32.5056
27.4944, 25.4944, 23.5056, 21.5056
15, 21, 26.4944, 28.5056
14.0111, 31, 45.4944, 22
19.4944, 25.5056, 41.9889, 24.0111
28.0222, 21.4944, 36, 29.5056
24, 22.5056, 35.4944, 39
27.5056, 26.0111, 26, 29.4944
20, 25.5056, 29.4944, 21.5056
15, 10, 18.4944, 32.5056
12, 15.4944, 33.5056, 27.4944
26.4944, 32, 17.5056, 14
20.4944, 27.5056, 25, 18.4944
15, 32.4944, 12.5056, 37
21, 29.4944, 16.5056, 35.9889
29.4944, 8, 22.5056, 33
16, 24.4944, 3, 26.5056
30, 24, 12, 21
29.5056, 26, 16, 30.4944
13.5056, 26.4944, 20, 33
16, 32.4944, 18.5056, 16
18, 26, 15.9889, 39.0111
27.9889, 34.0111, 16, 24.4944
17, 34.5056, 10.4944, 19.5056
29.4944, 24.0111, 24, 25.4944
15, 23, 31, 24.4944
32.5056, 31.5056, 17, 21
19.4944, 15.4944, 10.0111, 8.49445
28.5056
*END

*EOF