File: XRD:XRR/LCO/22123_LCOT/22123_LCOT_XRD_002.csv
#twotheta, yobs, ycal, bkg, diff
42.0,18.0,1.0,1.0,1.0
42.04,5.0,1.0,1.0,1.0
42.08,13.9889,1.0,1.0,1.0
42.12,9.0,1.0,1.0,1.0
42.16,17.4944,1.0,1.0,1.0
42.2,15.5056,1.0,1.0,1.0
42.24,31.9889,1.0,1.0,1.0
42.28,10.0,1.0,1.0,1.0
42.32,8.0,1.0,1.0,1.0
42.36,7.0,1.0,1.0,1.0
42.4,8.5056,1.0,1.0,1.0
42.44,21.5056,1.0,1.0,1.0
42.48,10.0111,1.0,1.0,1.0
42.52,12.0,1.0,1.0,1.0
42.56,15.5056,1.0,1.0,1.0
42.6,14.4944,1.0,1.0,1.0
42.64,18.5056,1.0,1.0,1.0
42.68,21.0111,1.0,1.0,1.0
42.72,10.0,1.0,1.0,1.0
42.76,11.0,1.0,1.0,1.0
42.8,18.0,1.0,1.0,1.0
42.84,28.5056,1.0,1.0,1.0
42.88,24.5056,1.0,1.0,1.0
42.92,18.0,1.0,1.0,1.0
42.96,17.0,1.0,1.0,1.0
43.0,18.5056,1.0,1.0,1.0
43.04,29.0,1.0,1.0,1.0
43.08,28.0,1.0,1.0,1.0
43.12,16.5056,1.0,1.0,1.0
43.16,17.0,1.0,1.0,1.0
43.2,24.0,1.0,1.0,1.0
43.24,12.0,1.0,1.0,1.0
43.28,16.0,1.0,1.0,1.0
43.32,22.0,1.0,1.0,1.0
43.36,28.0,1.0,1.0,1.0
43.4,19.0,1.0,1.0,1.0
43.44,15.5056,1.0,1.0,1.0
43.48,19.0,1.0,1.0,1.0
43.52,40.5056,1.0,1.0,1.0
43.56,24.5056,1.0,1.0,1.0
43.6,25.4944,1.0,1.0,1.0
43.64,22.0,1.0,1.0,1.0
43.68,20.0,1.0,1.0,1.0
43.72,30.5056,1.0,1.0,1.0
43.76,31.5056,1.0,1.0,1.0
43.8,25.4944,1.0,1.0,1.0
43.84,46.4944,1.0,1.0,1.0
43.88,25.0,1.0,1.0,1.0
43.92,22.0,1.0,1.0,1.0
43.96,22.0,1.0,1.0,1.0
44.0,37.9889,1.0,1.0,1.0
44.04,52.0,1.0,1.0,1.0
44.08,42.4944,1.0,1.0,1.0
44.12,35.9889,1.0,1.0,1.0
44.16,22.0111,1.0,1.0,1.0
44.2,29.9889,1.0,1.0,1.0
44.24,42.5056,1.0,1.0,1.0
44.28,54.0111,1.0,1.0,1.0
44.32,56.0,1.0,1.0,1.0
44.36,37.5056,1.0,1.0,1.0
44.4,26.9889,1.0,1.0,1.0
44.44,45.0111,1.0,1.0,1.0
44.48,63.9889,1.0,1.0,1.0
44.52,81.0,1.0,1.0,1.0
44.56,52.4833,1.0,1.0,1.0
44.6,26.9889,1.0,1.0,1.0
44.64,39.0,1.0,1.0,1.0
44.68,61.4944,1.0,1.0,1.0
44.72,100.4944,1.0,1.0,1.0
44.76,104.9889,1.0,1.0,1.0
44.8,67.5167,1.0,1.0,1.0
44.84,28.0,1.0,1.0,1.0
44.88,79.5056,1.0,1.0,1.0
44.92,107.0111,1.0,1.0,1.0
44.96,138.5056,1.0,1.0,1.0
45.0,104.9889,1.0,1.0,1.0
45.04,73.0111,1.0,1.0,1.0
45.08,45.4944,1.0,1.0,1.0
45.12,106.0111,1.0,1.0,1.0
45.16,181.5056,1.0,1.0,1.0
45.2,190.4944,1.0,1.0,1.0
45.24,101.5167,1.0,1.0,1.0
45.28,82.4833,1.0,1.0,1.0
45.32,80.0111,1.0,1.0,1.0
45.36,164.4611,1.0,1.0,1.0
45.4,325.0111,1.0,1.0,1.0
45.44,267.4833,1.0,1.0,1.0
45.48,151.0222,1.0,1.0,1.0
45.52,87.5056,1.0,1.0,1.0
45.56,139.9778,1.0,1.0,1.0
45.6,313.9556,1.0,1.0,1.0
45.64,425.0,1.0,1.0,1.0
45.68,363.5389,1.0,1.0,1.0
45.72,189.0222,1.0,1.0,1.0
45.76,114.5167,1.0,1.0,1.0
45.8,246.5278,1.0,1.0,1.0
45.84,582.9667,1.0,1.0,1.0
45.88,814.4944,1.0,1.0,1.0
45.92,685.9778,1.0,1.0,1.0
45.96,324.0333,1.0,1.0,1.0
46.0,210.4833,1.0,1.0,1.0
46.04,562.4944,1.0,1.0,1.0
46.08,1345.97,1.0,1.0,1.0
46.12,1879.0,1.0,1.0,1.0
46.16,1714.59,1.0,1.0,1.0
46.2,936.5278,1.0,1.0,1.0
46.24,1040.98,1.0,1.0,1.0
46.28,3521.38,1.0,1.0,1.0
46.32,10753.6,1.0,1.0,1.0
46.36,35267.8,1.0,1.0,1.0
46.4,164124,1.0,1.0,1.0
46.44,1275508.625,1.0,1.0,1.0
46.48,17550426.0,1.0,1.0,1.0
46.52,3772168.75,1.0,1.0,1.0
46.56,338374.375,1.0,1.0,1.0
46.6,48431.7,1.0,1.0,1.0
46.64,47657.1,1.0,1.0,1.0
46.68,80411.9,1.0,1.0,1.0
46.72,121680,1.0,1.0,1.0
46.76,156716,1.0,1.0,1.0
46.8,170819,1.0,1.0,1.0
46.84,157385,1.0,1.0,1.0
46.88,122964,1.0,1.0,1.0
46.92,78669,1.0,1.0,1.0
46.96,40983.3,1.0,1.0,1.0
47.0,14563,1.0,1.0,1.0
47.04,3698.04,1.0,1.0,1.0
47.08,2517.0,1.0,1.0,1.0
47.12,4603.38,1.0,1.0,1.0
47.16,5174.98,1.0,1.0,1.0
47.2,3712.65,1.0,1.0,1.0
47.24,1585.47,1.0,1.0,1.0
47.28,541.0333,1.0,1.0,1.0
47.32,897.5056,1.0,1.0,1.0
47.36,1596.98,1.0,1.0,1.0
47.4,1814.45,1.0,1.0,1.0
47.44,1392.07,1.0,1.0,1.0
47.48,608.4833,1.0,1.0,1.0
47.52,200.0222,1.0,1.0,1.0
47.56,473.4944,1.0,1.0,1.0
47.6,820.9889,1.0,1.0,1.0
47.64,954.5167,1.0,1.0,1.0
47.68,652.5278,1.0,1.0,1.0
47.72,287.0,1.0,1.0,1.0
47.76,149.4944,1.0,1.0,1.0
47.8,301.9778,1.0,1.0,1.0
47.84,492.5056,1.0,1.0,1.0
47.88,487.0333,1.0,1.0,1.0
47.92,334.0,1.0,1.0,1.0
47.96,189.0,1.0,1.0,1.0
48.0,86.4833,1.0,1.0,1.0
48.04,186.0,1.0,1.0,1.0
48.08,339.0111,1.0,1.0,1.0
48.12,289.0222,1.0,1.0,1.0
48.16,199.0333,1.0,1.0,1.0
48.2,91.5056,1.0,1.0,1.0
48.24,74.4944,1.0,1.0,1.0
48.28,114.0111,1.0,1.0,1.0
48.32,191.5056,1.0,1.0,1.0
48.36,177.5056,1.0,1.0,1.0
48.4,116.4833,1.0,1.0,1.0
48.44,88.0111,1.0,1.0,1.0
48.48,41.0,1.0,1.0,1.0
48.52,88.5056,1.0,1.0,1.0
48.56,104.0111,1.0,1.0,1.0
48.6,107.0111,1.0,1.0,1.0
48.64,86.5056,1.0,1.0,1.0
48.68,41.5056,1.0,1.0,1.0
48.72,30.0,1.0,1.0,1.0
48.76,59.4944,1.0,1.0,1.0
48.8,78.0,1.0,1.0,1.0
48.84,74.0,1.0,1.0,1.0
48.88,63.4944,1.0,1.0,1.0
48.92,23.0,1.0,1.0,1.0
48.96,34.0,1.0,1.0,1.0
49.0,45.4944,1.0,1.0,1.0
49.04,53.0111,1.0,1.0,1.0
49.08,33.0,1.0,1.0,1.0
49.12,31.5056,1.0,1.0,1.0
49.16,16.0,1.0,1.0,1.0
49.2,30.4944,1.0,1.0,1.0
49.24,42.5056,1.0,1.0,1.0
49.28,34.4944,1.0,1.0,1.0
49.32,28.0111,1.0,1.0,1.0
49.36,11.4944,1.0,1.0,1.0
49.4,31.0111,1.0,1.0,1.0
49.44,23.0,1.0,1.0,1.0
49.48,13.0,1.0,1.0,1.0
49.52,25.0,1.0,1.0,1.0
49.56,28.0,1.0,1.0,1.0
49.6,23.0,1.0,1.0,1.0
49.64,9.5056,1.0,1.0,1.0
49.68,17.5056,1.0,1.0,1.0
49.72,19.0,1.0,1.0,1.0
49.76,26.0,1.0,1.0,1.0
49.8,16.5056,1.0,1.0,1.0
49.84,12.4944,1.0,1.0,1.0
49.88,9.0,1.0,1.0,1.0
49.92,21.0,1.0,1.0,1.0
49.96,25.0,1.0,1.0,1.0
50.0,20.0,1.0,1.0,1.0
50.04,12.0111,1.0,1.0,1.0
50.08,19.4944,1.0,1.0,1.0
50.12,6.0,1.0,1.0,1.0
50.16,9.0,1.0,1.0,1.0
50.2,20.0,1.0,1.0,1.0
50.24,12.5056,1.0,1.0,1.0
50.28,5.0,1.0,1.0,1.0
50.32,18.0,1.0,1.0,1.0
50.36,21.0,1.0,1.0,1.0
50.4,16.0,1.0,1.0,1.0
50.44,13.9889,1.0,1.0,1.0
50.48,13.9889,1.0,1.0,1.0
50.52,14.0,1.0,1.0,1.0
50.56,7.4944,1.0,1.0,1.0
50.6,15.0,1.0,1.0,1.0
50.64,6.0,1.0,1.0,1.0
50.68,11.0,1.0,1.0,1.0
50.72,7.0,1.0,1.0,1.0
50.76,9.0,1.0,1.0,1.0
50.8,10.0,1.0,1.0,1.0
50.84,1.5056,1.0,1.0,1.0
50.88,6.0,1.0,1.0,1.0
50.92,8.0,1.0,1.0,1.0
50.96,2.0,1.0,1.0,1.0
51.0,4.0,1.0,1.0,1.0
51.04,10.4944,1.0,1.0,1.0
51.08,6.0,1.0,1.0,1.0
51.12,5.0,1.0,1.0,1.0
51.16,12.4944,1.0,1.0,1.0
51.2,9.0,1.0,1.0,1.0
51.24,4.0,1.0,1.0,1.0
51.28,0.4944,1.0,1.0,1.0
51.32,5.0,1.0,1.0,1.0
51.36,5.0,1.0,1.0,1.0
51.4,9.0,1.0,1.0,1.0
51.44,4.0,1.0,1.0,1.0
51.48,2.0,1.0,1.0,1.0
51.52,1.9889,1.0,1.0,1.0
51.56,2.0,1.0,1.0,1.0
51.6,8.0,1.0,1.0,1.0
51.64,1.9889,1.0,1.0,1.0
51.68,5.0,1.0,1.0,1.0
51.72,8.0,1.0,1.0,1.0
51.76,5.0,1.0,1.0,1.0
51.8,2.5056,1.0,1.0,1.0
51.84,8.0,1.0,1.0,1.0
51.88,7.9889,1.0,1.0,1.0
51.92,7.4944,1.0,1.0,1.0
51.96,9.0,1.0,1.0,1.0
52.0,5.0,1.0,1.0,1.0