File: XRD:XRR/LCO/22123_LCOT/22123_LCOT_XRR_2-Theta_Omega.asc
*TYPE		=  Raw
*CLASS		=  ASCII CLASS
*SAMPLE		=
*COMMENT	=
*FNAME		=  22123_LCOT_XRR_2-Theta_Omega.asc
*DATE		=  17-Aug-22 11:53

*GROUP_COUNT	=  1
*GONIO		=  SmartLab(In-plane), 0.000000
*ATTACHMENT	=  Z-Phi Stage
*ASC		=  0, 0, 0.000000, 0.000000
*I_MONOCHRO	=  Ge(220)x2, 0.000000
*FILTER		=  None
*C_MONOCHRO	=  None, 0.000000
*SLIT_NAME	=  0, Incident slit
*SLIT_NAME	=  1, Receiving slit # 1
*SLIT_NAME	=  2, Receiving slit # 2
*COUNTER	=  D/teX Ultra 250, 0
*POS_FORMAT	=  0
*SCAN_AXIS	=  2Theta/Omega
*MEAS_MODE	=  Continuous Scanning
*TARGET		=  29
*XRAY_CHAR	=  K-ALPHA1
*WAVE_LENGTH1	=  1.54059
*WAVE_LENGTH2	=  1.54441
*THICKNESS	=  0, 0.000000
*MU		=  0, 0.000000
*SCAN_MODE	=  2Theta/Omega
*SPEED_DIM	=  sec./step
*XUNIT		=  deg.
*YUNIT		=  counts
*SCALE_MODE	=  1
*REP_COUNT	=  0
*SE_COUNT	=  0
*STD_MATERIAL	=  Unknown, Unknown, 0.000000, 0.000000, 0.000000, 0.000000, 0.000000, 0.000000
*LATT_CONS	=  0, Unknown, Unknown, 0.000000, 0.000000, 0.000000, 0.000000, 0.000000, 0.000000
*SEC_COUNT	=  1
*TSPEC_SIZE	=  0
*EXTRA_SIZE	=  0
*MEMO		=

*BEGIN
*GROUP		=  0
*START		=  0.4
*STOP		=  4.5
*STEP		=  0.01
*OFFSET		=  0.000000
*SPEED		=  23.9588
*SLIT_SPEC	=  0, 1.000mm, 1, 0.000000
*SLIT_SPEC	=  1, 1.000mm, 1, 0.000000
*SLIT_SPEC	=  2, 1.000mm, 1, 0.000000
*KV		=  40
*MA		=  30
*LOW		=  0.000000
*HIGH		=  0.000000
*CTEMPER	=  0, 0.000000
*CTEMPER	=  1, 0.000000
*CTEMPER	=  2, 0.000000
*PAREX		=  0, 0.000000
*PAREX		=  1, 0.000000
*PAREX		=  2, 0.000000
*PAREX		=  3, 0.000000
*PAREX		=  4, 0.000000
*PAREX		=  5, 0.000000
*PAREX		=  6, 0.000000
*PAREX		=  7, 0.000000
*PAREX		=  8, 0.000000
*PAREX		=  9, 0.000000
*PAREX		=  10, 0.000000
*PAREX		=  11, 0.000000
*PAREX		=  12, 0.000000
*PAREX		=  13, 0.000000
*PAREX		=  14, 0.000000
*PAREX		=  15, 0.000000
*FULL_SCALE	=  93322.7
*INDEX		=  0, 0, 0
*COUNT		=  411
1485569, 1519659.5, 1548511, 1575801
1606942.5, 1632623, 1655993, 1682977
1707349, 1729542, 1747266.5, 1769349.5
1784815, 1801239.5, 1813282, 1823227.5
1834544.5, 1836768.5, 1839339, 1836817
1827494.5, 1813989.5, 1794679, 1766688.5
1730536.5, 1685419.5, 1622973.1, 1552015.6
1466533.1, 1369298.6, 1264033.6, 1154486.6
1040651.6, 942399, 849294, 767056
694120, 626705, 561859, 503988
453243, 408540, 372047, 344951
322764, 303431, 286034, 269188
251859, 231537, 213195, 195209
178543, 164434, 154728, 146486
140456, 135856, 133692, 129769
125391, 120633, 114567, 107734
100803, 92654, 86370.5, 80758.5
76154.5, 72120.5, 69630.5, 69070
67421, 66846.5, 66515.5, 64954
63892.5, 62379.5, 59134.5, 55902.5
52734.5, 49666, 46455.5, 43491.5
41175, 39348.5, 38247.5, 37413
37102.5, 36986, 37047.5, 36909
36420.5, 36088.5, 34783, 33829.5
32423.5, 30485, 29089, 26947.5
25557, 24210.5, 23079.5, 22458
22020, 21854.5, 21659.5, 22111
21844, 21855, 21771.5, 21378.5
20957.5, 20272.5, 19677.5, 18558.5
17640.5, 16654, 15690.5, 15013.5
14548, 13830.5, 13597, 13776.5
13450, 13781.5, 13819, 13690
13870, 13569, 13465, 13167.5
12561.5, 11983, 11417.5, 10935.5
10313.5, 9842, 9570, 9290.5
9000.5, 8953, 8807.5, 8975
8949.5, 8993.5, 8940, 8830.5
8887, 8872, 8462, 8318.5
7946, 7557, 7199, 6857
6662.5, 6409, 6286.5, 6006
6045, 6019, 6032.5, 5836.5
5957.5, 6134, 5890, 6116.5
5920, 5838.5, 5642.5, 5429.5
5184.5, 5041.5, 4734, 4512.5
4618, 4326, 4237, 4160.5
4061, 3994, 4122.5, 4204.5
4189.5, 4176.5, 4253.5, 4104.5
4104.5, 3977.5, 3863.5, 3710
3514.5, 3431.5, 3294, 3229
3012, 2933, 2936, 2975
2927, 2933, 2918.5, 2950
3041.5, 2842, 2871, 2896.5
2818, 2793, 2664.5, 2561
2536.5, 2472.5, 2336.5, 2220
2213.5, 2239.5, 2074.5, 2157
2044, 2160, 2218, 2151
2146, 2118.5, 2099.5, 2063.5
2068, 2043.5, 1977, 1899.5
1876, 1828.5, 1708.5, 1671.5
1694.5, 1585.5, 1564, 1518.5
1570, 1529, 1626, 1551
1554, 1561, 1521, 1481
1494.5, 1503, 1364.5, 1422
1390, 1340.5, 1317, 1252.5
1205, 1293, 1212.5, 1191
1185.5, 1163.5, 1327.5, 1179.5
1212, 1256, 1188, 1240.5
1179.5, 1135, 1109, 1046.5
1046, 1032.5, 1036, 951.5
921, 969.5, 948, 883
911.499, 954.001, 920.499, 888
981.5, 866.5, 874.5, 931.5
883.5, 917, 818.5, 870.5
823.5, 857, 870.5, 754
805, 761.501, 775, 737
740, 756.5, 750.5, 743.5
727.5, 742.999, 731.5, 760
701.5, 765.5, 753.5, 699
666.5, 701.5, 645, 671
706.5, 592.5, 641, 618
605, 577, 634, 620.5
633, 633, 603, 584.5
585, 547, 551.5, 611
546, 615, 563.5, 558.499
530.501, 535, 536, 536.5
550, 521.5, 531.5, 490
470.5, 528.5, 533, 511
556.5, 465, 517, 515.5
554.5, 503, 503.5, 465
461, 458.5, 482.5, 430.5
403.5, 460, 459.5, 457.5
435.5, 469, 441.5, 470.5
447.5, 490, 425, 381
434.5, 398, 452, 457
425, 431.5, 418, 429
413, 413, 416, 398.5
370, 375.5, 415, 430.5
395, 404.5, 400.5, 418
397.5, 404.5, 374.5, 367.5
386, 351, 390, 381
374.5, 382, 341.5, 374
375.5, 374, 379.5, 346
342, 394.5, 394
*END

*EOF