File: XRD:XRR/LCO/22123_LCOT/22123_LCOT_XRD_002_2-Theta_Omega.asc
*TYPE		=  Raw
*CLASS		=  ASCII CLASS
*SAMPLE		=
*COMMENT	=
*FNAME		=  22123_LCOT_XRD_002_2-Theta_Omega.asc
*DATE		=  17-Aug-22 01:30

*GROUP_COUNT	=  1
*GONIO		=  SmartLab(In-plane), 0.000000
*ATTACHMENT	=  Z-Phi Stage
*ASC		=  0, 0, 0.000000, 0.000000
*I_MONOCHRO	=  Ge(220)x2, 0.000000
*FILTER		=  None
*C_MONOCHRO	=  None, 0.000000
*SLIT_NAME	=  0, Incident slit
*SLIT_NAME	=  1, Receiving slit # 1
*SLIT_NAME	=  2, Receiving slit # 2
*COUNTER	=  D/teX Ultra 250, 0
*POS_FORMAT	=  0
*SCAN_AXIS	=  2Theta/Omega
*MEAS_MODE	=  Continuous Scanning
*TARGET		=  29
*XRAY_CHAR	=  K-ALPHA1
*WAVE_LENGTH1	=  1.54059
*WAVE_LENGTH2	=  1.54441
*THICKNESS	=  0, 0.000000
*MU		=  0, 0.000000
*SCAN_MODE	=  2Theta/Omega
*SPEED_DIM	=  sec./step
*XUNIT		=  deg.
*YUNIT		=  counts
*SCALE_MODE	=  1
*REP_COUNT	=  0
*SE_COUNT	=  0
*STD_MATERIAL	=  Unknown, Unknown, 0.000000, 0.000000, 0.000000, 0.000000, 0.000000, 0.000000
*LATT_CONS	=  0, Unknown, Unknown, 0.000000, 0.000000, 0.000000, 0.000000, 0.000000, 0.000000
*SEC_COUNT	=  1
*TSPEC_SIZE	=  0
*EXTRA_SIZE	=  0
*MEMO		=

*BEGIN
*GROUP		=  0
*START		=  42
*STOP		=  52
*STEP		=  0.01
*OFFSET		=  -0.163000
*SPEED		=  23.9588
*SLIT_SPEC	=  0, 0.400mm, 0.4, 0.000000
*SLIT_SPEC	=  1, 0.400mm, 0.4, 0.000000
*SLIT_SPEC	=  2, 0.400mm, 0.4, 0.000000
*KV		=  40
*MA		=  30
*LOW		=  0.000000
*HIGH		=  0.000000
*CTEMPER	=  0, 0.000000
*CTEMPER	=  1, 0.000000
*CTEMPER	=  2, 0.000000
*PAREX		=  0, 0.000000
*PAREX		=  1, 0.000000
*PAREX		=  2, 0.000000
*PAREX		=  3, 0.000000
*PAREX		=  4, 0.000000
*PAREX		=  5, 0.000000
*PAREX		=  6, 0.000000
*PAREX		=  7, 0.000000
*PAREX		=  8, 0.000000
*PAREX		=  9, 0.000000
*PAREX		=  10, 0.000000
*PAREX		=  11, 0.000000
*PAREX		=  12, 0.000000
*PAREX		=  13, 0.000000
*PAREX		=  14, 0.000000
*PAREX		=  15, 0.000000
*FULL_SCALE	=  1903340.9
*INDEX		=  0, 0, 0
*COUNT		=  1001
18, 17, 14, 8
5, 9, 5.49445, 16.5056
13.9889, 10.0111, 17, 13
9, 8, 15, 14
17.4944, 20.5056, 17, 5.49445
15.5056, 10, 12, 14
31.9889, 18.0111, 9, 20
10, 11.4944, 6.50555, 5
8, 8, 8, 12
7, 22.4944, 16.5056, 18.4944
8.50555, 23, 23.4944, 8
21.5056, 8, 10, 16.9889
10.0111, 14, 10, 17
12, 13, 15, 16.4944
15.5056, 11, 10, 22
14.4944, 16.5056, 19.4944, 13
18.5056, 10, 22, 26.4833
21.0111, 13.5056, 18.4944, 22.5056
10, 13, 12, 11
11, 25.4944, 24, 5.50555
18, 10, 14, 17.4944
28.5056, 23, 22.4944, 9
24.5056, 23, 18, 14
18, 18.4944, 24.5056, 21
17, 26, 14, 17.4944
18.5056, 9.49445, 14, 18.5056
29, 28, 18, 8
28, 32.4944, 21.5056, 21.4944
16.5056, 29, 25, 24
17, 24.4944, 24.5056, 22
24, 11.4944, 3.50555, 27
12, 13, 22, 24
16, 16.4944, 22.5056, 20
22, 26, 29.4944, 24.5056
28, 18, 29, 34
19, 13, 17, 12.4944
15.5056, 15, 17, 13
19, 22, 22.9889, 32.5056
40.5056, 19.9889, 31.0111, 21.4944
24.5056, 36, 28, 27
25.4944, 30.5056, 42, 24
22, 27.4944, 30, 19.5056
20, 36, 18.4944, 29.4944
30.5056, 22, 25, 30.4944
31.5056, 22.5056, 48.4944, 42.5056
25.4944, 28.5056, 29.4944, 39.5056
46.4944, 23, 35.4944, 32.5056
25, 20.4944, 24.5056, 35.5056
22, 22.4944, 20.5056, 28
22, 42.4944, 36.5056, 37.4944
37.9889, 45.0111, 50.5056, 23
52, 40.9778, 46.0222, 53
42.4944, 36, 31.4944, 20.0111
35.9889, 30.0111, 37.9889, 31
22.0111, 38, 50, 36
29.9889, 36.0111, 43.4944, 48.4944
42.5056, 57.4944, 62.0111, 63.9889
54.0111, 62.9889, 58.5056, 61
56, 32.4944, 51.0111, 40.9889
37.5056, 17.5056, 20.4944, 37
26.9889, 40.5167, 42.9889, 29
45.0111, 61.4944, 73, 79.5056
63.9889, 71, 79.0111, 75.4944
81, 62, 50.5056, 68
52.4833, 51.5167, 39.4944, 22.5056
26.9889, 30.0111, 35, 57
39, 52, 58.4944, 78
61.4944, 82, 93.4944, 88.5167
100.494, 92.4944, 100.011, 89.4944
104.989, 69, 51.5056, 56.9889
67.5167, 60, 56.4944, 36.0111
28, 54.9778, 53.0222, 69.4944
79.5056, 51.4944, 81.5056, 96.9778
107.011, 130, 147.494, 135.494
138.506, 150.494, 119.022, 106.494
104.989, 92.0111, 98.4944, 76
73.0111, 43, 51, 50.4944
45.4944, 57, 75, 93.9889
106.011, 114.506, 155.494, 153.494
181.506, 226.506, 195.978, 177.506
190.494, 195.011, 163.494, 137.494
101.517, 91.5056, 77.9889, 79.0111
82.4833, 65.0222, 73.9778, 73.0111
80.0111, 79.4833, 108, 148.506
164.461, 244.517, 257.494, 251
325.011, 300.494, 278, 290.528
267.483, 232.517, 231.483, 177.989
151.022, 116.011, 108.989, 91.5056
87.5056, 80.4944, 102, 115.506
139.978, 164.517, 226.978, 279
313.956, 321, 423.561, 421.483
425, 485.989, 410, 446.989
363.539, 381.944, 311.033, 250.506
189.022, 130.506, 131.483, 129
114.517, 95.4833, 164.517, 190.944
246.528, 324.989, 432.506, 465.494
582.967, 675.483, 806.506, 792.461
814.494, 784.067, 832.967, 734.539
685.978, 571.022, 567, 403.506
324.033, 253, 202.989, 177.517
210.483, 233.506, 311.967, 453
562.494, 733.967, 968.989, 1182.94
1345.97, 1621.47, 1735.56, 1804.45
1879, 1888.02, 1886.41, 1864.62
1714.59, 1491.42, 1292.49, 1108.03
936.528, 897.044, 756.45, 815.989
1040.98, 1387.43, 1852.49, 2620.88
3521.38, 4490.99, 6285.66, 8290.34
10753.6, 14827.7, 19231.7, 26061.5
35267.8, 47535.8, 66740.1, 99405.7
164124, 279085, 479376, 784825
1275508.6, 2125547.3, 3639195.5, 6699374
17550426, 35285444, 22982656, 8427239
3772168.8, 1927354.5, 1078117.1, 610449
338374, 180768, 99642, 63341.3
48431.7, 42539.1, 40764.9, 43089.3
47657.1, 53976.9, 62060.4, 70551.4
80411.9, 90499.4, 101005, 111396
121680, 131536, 140784, 149677
156716, 162375, 166134, 169040
170819, 169519, 166466, 163194
157385, 149875, 141754, 132099
122964, 111947, 101071, 89488.8
78669, 68619.7, 58426.2, 49038.7
40983.3, 32680.2, 25575.1, 19973
14563, 10695.4, 7526.89, 5311.24
3698.04, 2697.98, 2275.65, 2239.92
2517, 2970.53, 3581.88, 4061.31
4603.38, 4969.16, 5233.47, 5392.46
5174.98, 5030.58, 4665.99, 4288.58
3712.65, 3199.01, 2637.65, 2042.02
1585.47, 1175.07, 846.55, 662.483
541.033, 508.517, 589.978, 731.461
897.506, 1041.98, 1325.48, 1514.41
1596.98, 1770.04, 1936.97, 1889.55
1814.45, 1806.52, 1689.54, 1535.49
1392.07, 1130.02, 890.517, 672.033
608.483, 412.011, 327.528, 267.978
200.022, 222.506, 283.989, 331.472
473.494, 586.022, 632.989, 786.461
820.989, 943.506, 931.989, 921.483
954.517, 879.517, 817.011, 722.494
652.528, 539.011, 440.011, 370.483
287, 204.528, 158, 142.506
149.494, 140.011, 191.967, 225.033
301.978, 333.989, 395.989, 409
492.506, 489.506, 529.494, 558.483
487.033, 485.978, 429.483, 370.539
334, 299.494, 199.011, 191.517
189, 106.506, 110.989, 74.0111
86.4833, 116.494, 129.506, 165.494
186, 241, 235.506, 256.989
339.011, 275.989, 304.989, 300
289.022, 268.989, 294.011, 218.483
199.033, 168.483, 134.506, 114.506
91.5056, 97.9889, 48.5167, 57
74.4944, 92.4944, 89.0111, 109.989
114.011, 117.494, 143.978, 146.506
191.506, 181.506, 195.989, 182
177.506, 133.011, 127.506, 145
116.483, 220.506, 80.5056, 55.4944
88.0111, 47.9778, 53.0222, 66
41, 45.9889, 87.5056, 72.9889
88.5056, 109.494, 126, 112.989
104.011, 108.011, 128.989, 128
107.011, 102.472, 88.0222, 78
86.5056, 66.4833, 52.0222, 49.4944
41.5056, 32, 40.9889, 39.5056
30, 62.4944, 62.0111, 60.4944
59.4944, 86, 83, 83.5056
78, 83.4944, 92.9889, 67.5167
74, 58.4944, 61.5056, 51
63.4944, 24.0111, 38.4944, 22.5056
23, 33, 29.4944, 48.5056
34, 54.9889, 42.4944, 48.0111
45.4944, 53.0111, 62, 66.9889
53.0111, 37.4944, 41.5056, 34.4944
33, 38.9889, 35.5167, 36.4944
31.5056, 24, 30.9889, 35.5056
16, 19.5056, 33, 24.4944
30.4944, 41.0111, 28, 44.4944
42.5056, 39, 41.4944, 28.5056
34.4944, 35, 35.4944, 36
28.0111, 20, 27.4944, 15.5056
11.4944, 20.5056, 28, 20.9889
31.0111, 19, 25.4944, 17
23, 17.5056, 11, 32
13, 26.4944, 24, 28.5056
25, 30, 26.4944, 19.5056
28, 23.4944, 29, 19.5056
23, 27.4833, 23.5167, 21.9889
9.50555, 24, 12.4944, 24
17.5056, 20.5056, 17, 34
19, 25.4944, 32, 8.50555
26, 16, 14, 10.4944
16.5056, 11, 10, 19
12.4944, 12.5056, 11, 14
9, 17, 19.4944, 15.5056
21, 27, 12.4944, 21.5056
25, 7, 17, 13
20, 15, 14.4944, 12.4944
12.0111, 10, 8, 6
19.4944, 15, 12, 21.5056
6, 13, 13, 16.9889
9, 17.0111, 15, 18
20, 8, 8, 7.49445
12.5056, 8.49445, 14.5056, 10
5, 10, 12.4944, 5.50555
18, 10, 15, 3.49445
21, 21.5056, 12, 10
16, 5.49445, 10.5056, 8
13.9889, 17.5056, 9.50555, 6
13.9889, 13.5056, 9.50555, 14
14, 6, 5, 3
7.49445, 7.50555, 5, 6
15, 15, 7, 12
6, 7, 12, 12
11, 9, 8, 14
7, 9.98889, 13.5056, 11.5056
9, 5, 4, 12
10, 7, 15, 8.49445
1.50555, 13.4944, 5.50555, 14
6, 15, 7, 7
8, 2.49445, 6.50555, 13
2, 4, 9.49445, 1.50555
4, 7, 8, 6
10.4944, 8.50555, 8, 10
6, 9, 14, 10
5, 4, 12, 15
12.4944, 6.50555, 10, 9
9, 14, 7.49445, 10.5056
4, 7, 7, 10
0.494446, 11.5056, 11, 1
5, 5, 16.4944, 7.50555
5, 5, 5.49445, 8.50555
9, 6, 8, 12
4, 9.98889, 7.01111, 3
2, 0.000000, 3, 13
1.98889, 13.0111, 6, 9
2, 4, 1, 5
8, 3, 5, 6
1.98889, 5.01111, 4, 2
5, 5, 11, 3
8, 15, 8.49445, 4.50555
5, 15, 7.49445, 6
2.50555, 6, 6.49445, 0.505554
8, 12, 6, 4
7.98889, 12.0111, 3, 0.000000
7.49445, 10.5056, 11, 9
9, 2, 7, 4
5
*END

*EOF