File: XRD:XRR/SCO/22133_SCOT/22133_SCOT_XRD_002.csv
#twotheta, yobs, ycal, bkg, diff
42.0,18.0,1.0,1.0,1.0
42.04,9.0,1.0,1.0,1.0
42.08,23.0,1.0,1.0,1.0
42.12,13.0,1.0,1.0,1.0
42.16,6.0,1.0,1.0,1.0
42.2,24.0,1.0,1.0,1.0
42.24,6.4944,1.0,1.0,1.0
42.28,15.0,1.0,1.0,1.0
42.32,7.0,1.0,1.0,1.0
42.36,0.4944,1.0,1.0,1.0
42.4,12.0,1.0,1.0,1.0
42.44,11.0,1.0,1.0,1.0
42.48,3.0,1.0,1.0,1.0
42.52,8.5056,1.0,1.0,1.0
42.56,2.0,1.0,1.0,1.0
42.6,8.9889,1.0,1.0,1.0
42.64,7.0,1.0,1.0,1.0
42.68,20.0,1.0,1.0,1.0
42.72,7.4944,1.0,1.0,1.0
42.76,8.0,1.0,1.0,1.0
42.8,9.0,1.0,1.0,1.0
42.84,13.9889,1.0,1.0,1.0
42.88,17.0111,1.0,1.0,1.0
42.92,27.4944,1.0,1.0,1.0
42.96,8.0,1.0,1.0,1.0
43.0,19.5056,1.0,1.0,1.0
43.04,24.4944,1.0,1.0,1.0
43.08,24.0,1.0,1.0,1.0
43.12,19.0,1.0,1.0,1.0
43.16,22.4944,1.0,1.0,1.0
43.2,29.4944,1.0,1.0,1.0
43.24,15.5056,1.0,1.0,1.0
43.28,22.0,1.0,1.0,1.0
43.32,21.0,1.0,1.0,1.0
43.36,18.0,1.0,1.0,1.0
43.4,17.0,1.0,1.0,1.0
43.44,17.5056,1.0,1.0,1.0
43.48,19.0,1.0,1.0,1.0
43.52,5.0,1.0,1.0,1.0
43.56,16.0,1.0,1.0,1.0
43.6,13.0111,1.0,1.0,1.0
43.64,6.0,1.0,1.0,1.0
43.68,14.0,1.0,1.0,1.0
43.72,17.0,1.0,1.0,1.0
43.76,16.0,1.0,1.0,1.0
43.8,12.0111,1.0,1.0,1.0
43.84,21.0,1.0,1.0,1.0
43.88,22.0,1.0,1.0,1.0
43.92,21.0,1.0,1.0,1.0
43.96,42.5167,1.0,1.0,1.0
44.0,54.5056,1.0,1.0,1.0
44.04,34.0,1.0,1.0,1.0
44.08,34.0,1.0,1.0,1.0
44.12,45.4944,1.0,1.0,1.0
44.16,49.0111,1.0,1.0,1.0
44.2,47.5056,1.0,1.0,1.0
44.24,41.5167,1.0,1.0,1.0
44.28,59.0111,1.0,1.0,1.0
44.32,29.5056,1.0,1.0,1.0
44.36,56.5056,1.0,1.0,1.0
44.4,25.0111,1.0,1.0,1.0
44.44,35.5056,1.0,1.0,1.0
44.48,29.4944,1.0,1.0,1.0
44.52,41.4944,1.0,1.0,1.0
44.56,18.0,1.0,1.0,1.0
44.6,20.5056,1.0,1.0,1.0
44.64,26.0,1.0,1.0,1.0
44.68,28.4944,1.0,1.0,1.0
44.72,20.4944,1.0,1.0,1.0
44.76,38.0,1.0,1.0,1.0
44.8,45.5056,1.0,1.0,1.0
44.84,43.5056,1.0,1.0,1.0
44.88,37.4944,1.0,1.0,1.0
44.92,59.0222,1.0,1.0,1.0
44.96,54.0,1.0,1.0,1.0
45.0,79.4944,1.0,1.0,1.0
45.04,73.0,1.0,1.0,1.0
45.08,92.0,1.0,1.0,1.0
45.12,77.0,1.0,1.0,1.0
45.16,81.4944,1.0,1.0,1.0
45.2,67.0,1.0,1.0,1.0
45.24,102.4944,1.0,1.0,1.0
45.28,99.4944,1.0,1.0,1.0
45.32,101.5056,1.0,1.0,1.0
45.36,88.0,1.0,1.0,1.0
45.4,77.5056,1.0,1.0,1.0
45.44,73.9778,1.0,1.0,1.0
45.48,88.5056,1.0,1.0,1.0
45.52,73.5056,1.0,1.0,1.0
45.56,71.5056,1.0,1.0,1.0
45.6,79.0111,1.0,1.0,1.0
45.64,101.5167,1.0,1.0,1.0
45.68,105.0111,1.0,1.0,1.0
45.72,97.5167,1.0,1.0,1.0
45.76,122.9889,1.0,1.0,1.0
45.8,188.0111,1.0,1.0,1.0
45.84,226.0,1.0,1.0,1.0
45.88,281.9889,1.0,1.0,1.0
45.92,392.4944,1.0,1.0,1.0
45.96,458.9778,1.0,1.0,1.0
46.0,643.0222,1.0,1.0,1.0
46.04,687.0,1.0,1.0,1.0
46.08,896.9667,1.0,1.0,1.0
46.12,1071.99,1.0,1.0,1.0
46.16,1396.46,1.0,1.0,1.0
46.2,1767.51,1.0,1.0,1.0
46.24,2218.96,1.0,1.0,1.0
46.28,2948.46,1.0,1.0,1.0
46.32,3896.94,1.0,1.0,1.0
46.36,6347.228,1.0,1.0,1.0
46.4,27730.2,1.0,1.0,1.0
46.44,167212,1.0,1.0,1.0
46.48,360646,1.0,1.0,1.0
46.52,467043,1.0,1.0,1.0
46.56,7297164.5,1.0,1.0,1.0
46.6,166994,1.0,1.0,1.0
46.64,16415.7,1.0,1.0,1.0
46.68,4872.14,1.0,1.0,1.0
46.72,2043.47,1.0,1.0,1.0
46.76,995.5167,1.0,1.0,1.0
46.8,518.0444,1.0,1.0,1.0
46.84,305.9889,1.0,1.0,1.0
46.88,260.0222,1.0,1.0,1.0
46.92,221.5056,1.0,1.0,1.0
46.96,215.5167,1.0,1.0,1.0
47.0,175.9889,1.0,1.0,1.0
47.04,169.9889,1.0,1.0,1.0
47.08,152.0,1.0,1.0,1.0
47.12,136.4944,1.0,1.0,1.0
47.16,131.0,1.0,1.0,1.0
47.2,130.9667,1.0,1.0,1.0
47.24,130.4944,1.0,1.0,1.0
47.28,99.4833,1.0,1.0,1.0
47.32,113.0,1.0,1.0,1.0
47.36,93.5056,1.0,1.0,1.0
47.4,71.4944,1.0,1.0,1.0
47.44,54.0,1.0,1.0,1.0
47.48,78.4833,1.0,1.0,1.0
47.52,62.0111,1.0,1.0,1.0
47.56,61.4944,1.0,1.0,1.0
47.6,58.0111,1.0,1.0,1.0
47.64,73.0,1.0,1.0,1.0
47.68,61.0,1.0,1.0,1.0
47.72,66.0111,1.0,1.0,1.0
47.76,84.5056,1.0,1.0,1.0
47.8,93.4833,1.0,1.0,1.0
47.84,78.0,1.0,1.0,1.0
47.88,80.9889,1.0,1.0,1.0
47.92,87.0,1.0,1.0,1.0
47.96,103.5167,1.0,1.0,1.0
48.0,94.9778,1.0,1.0,1.0
48.04,94.5056,1.0,1.0,1.0
48.08,87.9889,1.0,1.0,1.0
48.12,93.9889,1.0,1.0,1.0
48.16,117.4944,1.0,1.0,1.0
48.2,86.5056,1.0,1.0,1.0
48.24,90.0,1.0,1.0,1.0
48.28,81.0,1.0,1.0,1.0
48.32,88.5056,1.0,1.0,1.0
48.36,54.0111,1.0,1.0,1.0
48.4,64.9889,1.0,1.0,1.0
48.44,45.5056,1.0,1.0,1.0
48.48,39.0111,1.0,1.0,1.0
48.52,48.4944,1.0,1.0,1.0
48.56,53.5056,1.0,1.0,1.0
48.6,36.5056,1.0,1.0,1.0
48.64,25.0,1.0,1.0,1.0
48.68,17.0,1.0,1.0,1.0
48.72,18.5056,1.0,1.0,1.0
48.76,13.0,1.0,1.0,1.0
48.8,13.5056,1.0,1.0,1.0
48.84,7.0,1.0,1.0,1.0
48.88,8.0,1.0,1.0,1.0
48.92,4.4944,1.0,1.0,1.0
48.96,15.0,1.0,1.0,1.0
49.0,20.4944,1.0,1.0,1.0
49.04,10.4944,1.0,1.0,1.0
49.08,10.4944,1.0,1.0,1.0
49.12,10.5056,1.0,1.0,1.0
49.16,22.0,1.0,1.0,1.0
49.2,11.4944,1.0,1.0,1.0
49.24,12.9889,1.0,1.0,1.0
49.28,11.0,1.0,1.0,1.0
49.32,8.0,1.0,1.0,1.0
49.36,14.5056,1.0,1.0,1.0
49.4,14.0,1.0,1.0,1.0
49.44,7.0111,1.0,1.0,1.0
49.48,13.0,1.0,1.0,1.0
49.52,15.0,1.0,1.0,1.0
49.56,12.0,1.0,1.0,1.0
49.6,6.0,1.0,1.0,1.0
49.64,15.0,1.0,1.0,1.0
49.68,4.0,1.0,1.0,1.0
49.72,7.0,1.0,1.0,1.0
49.76,9.0,1.0,1.0,1.0
49.8,5.0,1.0,1.0,1.0
49.84,5.0,1.0,1.0,1.0
49.88,3.5056,1.0,1.0,1.0
49.92,4.0,1.0,1.0,1.0
49.96,4.0,1.0,1.0,1.0
50.0,2.0,1.0,1.0,1.0
50.04,7.5056,1.0,1.0,1.0
50.08,6.0,1.0,1.0,1.0
50.12,0.0,1.0,1.0,1.0
50.16,11.0,1.0,1.0,1.0
50.2,12.0,1.0,1.0,1.0
50.24,7.0,1.0,1.0,1.0
50.28,2.4944,1.0,1.0,1.0
50.32,6.0,1.0,1.0,1.0
50.36,16.0,1.0,1.0,1.0
50.4,7.0,1.0,1.0,1.0
50.44,7.0,1.0,1.0,1.0
50.48,7.0,1.0,1.0,1.0
50.52,5.0,1.0,1.0,1.0
50.56,4.0,1.0,1.0,1.0
50.6,5.5056,1.0,1.0,1.0
50.64,7.0,1.0,1.0,1.0
50.68,2.4944,1.0,1.0,1.0
50.72,10.0,1.0,1.0,1.0
50.76,8.0,1.0,1.0,1.0
50.8,0.0,1.0,1.0,1.0
50.84,0.0,1.0,1.0,1.0
50.88,7.0,1.0,1.0,1.0
50.92,4.4944,1.0,1.0,1.0
50.96,5.4944,1.0,1.0,1.0
51.0,12.5056,1.0,1.0,1.0
51.04,9.0,1.0,1.0,1.0
51.08,8.0,1.0,1.0,1.0
51.12,2.0,1.0,1.0,1.0
51.16,7.0,1.0,1.0,1.0
51.2,9.0,1.0,1.0,1.0
51.24,11.0,1.0,1.0,1.0
51.28,5.0,1.0,1.0,1.0
51.32,4.0,1.0,1.0,1.0
51.36,3.0,1.0,1.0,1.0
51.4,4.0,1.0,1.0,1.0
51.44,9.5056,1.0,1.0,1.0
51.48,9.0,1.0,1.0,1.0
51.52,12.0,1.0,1.0,1.0
51.56,2.0,1.0,1.0,1.0
51.6,0.0,1.0,1.0,1.0
51.64,12.5056,1.0,1.0,1.0
51.68,7.0,1.0,1.0,1.0
51.72,5.0,1.0,1.0,1.0
51.76,0.0,1.0,1.0,1.0
51.8,0.4944,1.0,1.0,1.0
51.84,2.0,1.0,1.0,1.0
51.88,3.0,1.0,1.0,1.0
51.92,5.0,1.0,1.0,1.0
51.96,4.5056,1.0,1.0,1.0
52.0,4.0,1.0,1.0,1.0