File: XRD:XRR/SCO/22076_SCOT_XRD.csv
#twotheta, yobs, ycal, bkg, diff
42.0,18.5056,1.0,1.0,1.0
42.04,30.4944,1.0,1.0,1.0
42.08,32.0,1.0,1.0,1.0
42.12,8.0,1.0,1.0,1.0
42.16,26.5056,1.0,1.0,1.0
42.2,9.0,1.0,1.0,1.0
42.24,16.5056,1.0,1.0,1.0
42.28,21.5056,1.0,1.0,1.0
42.32,19.4944,1.0,1.0,1.0
42.36,38.4944,1.0,1.0,1.0
42.4,38.0,1.0,1.0,1.0
42.44,29.0,1.0,1.0,1.0
42.48,31.0,1.0,1.0,1.0
42.52,30.5056,1.0,1.0,1.0
42.56,41.4944,1.0,1.0,1.0
42.6,30.0111,1.0,1.0,1.0
42.64,32.0,1.0,1.0,1.0
42.68,35.0,1.0,1.0,1.0
42.72,16.0,1.0,1.0,1.0
42.76,24.9889,1.0,1.0,1.0
42.8,19.5056,1.0,1.0,1.0
42.84,25.9889,1.0,1.0,1.0
42.88,70.9889,1.0,1.0,1.0
42.92,60.5167,1.0,1.0,1.0
42.96,67.9778,1.0,1.0,1.0
43.0,59.0111,1.0,1.0,1.0
43.04,82.5056,1.0,1.0,1.0
43.08,68.9889,1.0,1.0,1.0
43.12,59.0,1.0,1.0,1.0
43.16,54.9889,1.0,1.0,1.0
43.2,38.4944,1.0,1.0,1.0
43.24,30.0,1.0,1.0,1.0
43.28,42.4944,1.0,1.0,1.0
43.32,40.4944,1.0,1.0,1.0
43.36,39.4944,1.0,1.0,1.0
43.4,67.0111,1.0,1.0,1.0
43.44,80.0,1.0,1.0,1.0
43.48,119.4833,1.0,1.0,1.0
43.52,127.4944,1.0,1.0,1.0
43.56,119.0111,1.0,1.0,1.0
43.6,103.4944,1.0,1.0,1.0
43.64,97.5056,1.0,1.0,1.0
43.68,90.5056,1.0,1.0,1.0
43.72,83.4944,1.0,1.0,1.0
43.76,45.4944,1.0,1.0,1.0
43.8,32.9889,1.0,1.0,1.0
43.84,48.0,1.0,1.0,1.0
43.88,59.0,1.0,1.0,1.0
43.92,125.0,1.0,1.0,1.0
43.96,132.0111,1.0,1.0,1.0
44.0,172.9667,1.0,1.0,1.0
44.04,205.9889,1.0,1.0,1.0
44.08,214.4833,1.0,1.0,1.0
44.12,156.5278,1.0,1.0,1.0
44.16,151.9778,1.0,1.0,1.0
44.2,166.9889,1.0,1.0,1.0
44.24,126.4944,1.0,1.0,1.0
44.28,81.4833,1.0,1.0,1.0
44.32,62.4833,1.0,1.0,1.0
44.36,70.4944,1.0,1.0,1.0
44.4,109.0,1.0,1.0,1.0
44.44,180.5056,1.0,1.0,1.0
44.48,237.0111,1.0,1.0,1.0
44.52,279.5389,1.0,1.0,1.0
44.56,380.9889,1.0,1.0,1.0
44.6,347.0222,1.0,1.0,1.0
44.64,335.5056,1.0,1.0,1.0
44.68,289.0222,1.0,1.0,1.0
44.72,236.0222,1.0,1.0,1.0
44.76,179.5278,1.0,1.0,1.0
44.8,101.0,1.0,1.0,1.0
44.84,52.0,1.0,1.0,1.0
44.88,92.9778,1.0,1.0,1.0
44.92,166.5278,1.0,1.0,1.0
44.96,276.0,1.0,1.0,1.0
45.0,383.45,1.0,1.0,1.0
45.04,516.4722,1.0,1.0,1.0
45.08,551.5389,1.0,1.0,1.0
45.12,624.9667,1.0,1.0,1.0
45.16,594.9778,1.0,1.0,1.0
45.2,498.9889,1.0,1.0,1.0
45.24,440.0333,1.0,1.0,1.0
45.28,271.0,1.0,1.0,1.0
45.32,178.4944,1.0,1.0,1.0
45.36,176.5167,1.0,1.0,1.0
45.4,256.9889,1.0,1.0,1.0
45.44,380.4833,1.0,1.0,1.0
45.48,545.0333,1.0,1.0,1.0
45.52,775.4833,1.0,1.0,1.0
45.56,907.5278,1.0,1.0,1.0
45.6,947.5056,1.0,1.0,1.0
45.64,892.9778,1.0,1.0,1.0
45.68,806.4833,1.0,1.0,1.0
45.72,740.9778,1.0,1.0,1.0
45.76,899.45,1.0,1.0,1.0
45.8,1530.0,1.0,1.0,1.0
45.84,2894.98,1.0,1.0,1.0
45.88,5368.39,1.0,1.0,1.0
45.92,9093.29,1.0,1.0,1.0
45.96,14229.8,1.0,1.0,1.0
46.0,21113.3,1.0,1.0,1.0
46.04,29458.2,1.0,1.0,1.0
46.08,39463.2,1.0,1.0,1.0
46.12,49952.9,1.0,1.0,1.0
46.16,61701.9,1.0,1.0,1.0
46.2,73519.7,1.0,1.0,1.0
46.24,86451.2,1.0,1.0,1.0
46.28,100734,1.0,1.0,1.0
46.32,120784,1.0,1.0,1.0
46.36,161037,1.0,1.0,1.0
46.4,275149.75,1.0,1.0,1.0
46.44,897201,1.0,1.0,1.0
46.48,127778608.0,1.0,1.0,1.0
46.52,812225.125,1.0,1.0,1.0
46.56,164425,1.0,1.0,1.0
46.6,66791.5,1.0,1.0,1.0
46.64,34569.2,1.0,1.0,1.0
46.68,21260.5,1.0,1.0,1.0
46.72,12689.3,1.0,1.0,1.0
46.76,7452.96,1.0,1.0,1.0
46.8,4020.54,1.0,1.0,1.0
46.84,1820.57,1.0,1.0,1.0
46.88,905.9889,1.0,1.0,1.0
46.92,716.9889,1.0,1.0,1.0
46.96,896.4944,1.0,1.0,1.0
47.0,1154.96,1.0,1.0,1.0
47.04,1542.53,1.0,1.0,1.0
47.08,1706.01,1.0,1.0,1.0
47.12,1646.06,1.0,1.0,1.0
47.16,1571.07,1.0,1.0,1.0
47.2,1163.97,1.0,1.0,1.0
47.24,865.55,1.0,1.0,1.0
47.28,601.4944,1.0,1.0,1.0
47.32,328.0,1.0,1.0,1.0
47.36,165.5056,1.0,1.0,1.0
47.4,114.9889,1.0,1.0,1.0
47.44,135.0333,1.0,1.0,1.0
47.48,200.0,1.0,1.0,1.0
47.52,305.4611,1.0,1.0,1.0
47.56,356.0222,1.0,1.0,1.0
47.6,420.9889,1.0,1.0,1.0
47.64,419.4611,1.0,1.0,1.0
47.68,391.0,1.0,1.0,1.0
47.72,315.4944,1.0,1.0,1.0
47.76,270.5167,1.0,1.0,1.0
47.8,193.5056,1.0,1.0,1.0
47.84,109.5056,1.0,1.0,1.0
47.88,34.9889,1.0,1.0,1.0
47.92,47.5056,1.0,1.0,1.0
47.96,76.5167,1.0,1.0,1.0
48.0,134.0111,1.0,1.0,1.0
48.04,127.9889,1.0,1.0,1.0
48.08,136.9556,1.0,1.0,1.0
48.12,170.0111,1.0,1.0,1.0
48.16,151.4944,1.0,1.0,1.0
48.2,139.5056,1.0,1.0,1.0
48.24,120.4944,1.0,1.0,1.0
48.28,107.5056,1.0,1.0,1.0
48.32,88.0,1.0,1.0,1.0
48.36,54.5056,1.0,1.0,1.0
48.4,39.4944,1.0,1.0,1.0
48.44,41.4944,1.0,1.0,1.0
48.48,45.0,1.0,1.0,1.0
48.52,48.5056,1.0,1.0,1.0
48.56,62.9889,1.0,1.0,1.0
48.6,76.4833,1.0,1.0,1.0
48.64,80.0,1.0,1.0,1.0
48.68,74.4833,1.0,1.0,1.0
48.72,61.4944,1.0,1.0,1.0
48.76,68.0,1.0,1.0,1.0
48.8,54.9889,1.0,1.0,1.0
48.84,50.0,1.0,1.0,1.0
48.88,17.0,1.0,1.0,1.0
48.92,26.0,1.0,1.0,1.0
48.96,42.9889,1.0,1.0,1.0
49.0,37.0,1.0,1.0,1.0
49.04,69.0,1.0,1.0,1.0
49.08,21.0,1.0,1.0,1.0
49.12,52.0111,1.0,1.0,1.0
49.16,51.5056,1.0,1.0,1.0
49.2,32.0111,1.0,1.0,1.0
49.24,30.4944,1.0,1.0,1.0
49.28,29.0,1.0,1.0,1.0
49.32,25.5056,1.0,1.0,1.0
49.36,12.4944,1.0,1.0,1.0
49.4,30.4944,1.0,1.0,1.0
49.44,19.0,1.0,1.0,1.0
49.48,19.4944,1.0,1.0,1.0
49.52,19.0,1.0,1.0,1.0
49.56,34.5056,1.0,1.0,1.0
49.6,18.0,1.0,1.0,1.0
49.64,26.0,1.0,1.0,1.0
49.68,21.0,1.0,1.0,1.0
49.72,37.0,1.0,1.0,1.0
49.76,34.9889,1.0,1.0,1.0
49.8,18.9889,1.0,1.0,1.0
49.84,27.0,1.0,1.0,1.0
49.88,18.0,1.0,1.0,1.0
49.92,13.5056,1.0,1.0,1.0
49.96,11.5056,1.0,1.0,1.0
50.0,20.0,1.0,1.0,1.0
50.04,20.0,1.0,1.0,1.0
50.08,15.0,1.0,1.0,1.0
50.12,13.0,1.0,1.0,1.0
50.16,7.4944,1.0,1.0,1.0
50.2,15.0,1.0,1.0,1.0
50.24,7.0,1.0,1.0,1.0
50.28,16.0,1.0,1.0,1.0
50.32,11.0,1.0,1.0,1.0
50.36,13.0,1.0,1.0,1.0
50.4,14.9889,1.0,1.0,1.0
50.44,12.4944,1.0,1.0,1.0
50.48,13.4944,1.0,1.0,1.0
50.52,14.0,1.0,1.0,1.0
50.56,4.0,1.0,1.0,1.0
50.6,20.4944,1.0,1.0,1.0
50.64,21.0,1.0,1.0,1.0
50.68,10.0,1.0,1.0,1.0
50.72,17.4944,1.0,1.0,1.0
50.76,16.0,1.0,1.0,1.0
50.8,6.0,1.0,1.0,1.0
50.84,8.0,1.0,1.0,1.0
50.88,4.0,1.0,1.0,1.0
50.92,15.5056,1.0,1.0,1.0
50.96,9.0,1.0,1.0,1.0
51.0,9.0,1.0,1.0,1.0
51.04,16.0,1.0,1.0,1.0
51.08,11.5056,1.0,1.0,1.0
51.12,11.0,1.0,1.0,1.0
51.16,5.0,1.0,1.0,1.0
51.2,12.0,1.0,1.0,1.0
51.24,9.4944,1.0,1.0,1.0
51.28,6.0,1.0,1.0,1.0
51.32,7.5056,1.0,1.0,1.0
51.36,10.0,1.0,1.0,1.0
51.4,7.4944,1.0,1.0,1.0
51.44,11.0,1.0,1.0,1.0
51.48,12.4944,1.0,1.0,1.0
51.52,6.4944,1.0,1.0,1.0
51.56,15.9889,1.0,1.0,1.0
51.6,5.0,1.0,1.0,1.0
51.64,20.0111,1.0,1.0,1.0
51.68,7.0,1.0,1.0,1.0
51.72,8.0,1.0,1.0,1.0
51.76,10.0,1.0,1.0,1.0
51.8,7.0,1.0,1.0,1.0
51.84,5.5056,1.0,1.0,1.0
51.88,4.5056,1.0,1.0,1.0
51.92,15.5056,1.0,1.0,1.0
51.96,13.0111,1.0,1.0,1.0
52.0,13.0,1.0,1.0,1.0