File: XRD:XRR/SCO/22170_SL(CO)L/22170_SL(CO)L_002_XRD.csv
#twotheta, yobs, ycal, bkg, diff
42.0,60.0,1.0,1.0,1.0
42.04,65.4833,1.0,1.0,1.0
42.08,77.0,1.0,1.0,1.0
42.12,55.0,1.0,1.0,1.0
42.16,39.5056,1.0,1.0,1.0
42.2,74.0,1.0,1.0,1.0
42.24,50.0,1.0,1.0,1.0
42.28,55.9889,1.0,1.0,1.0
42.32,73.4833,1.0,1.0,1.0
42.36,78.5056,1.0,1.0,1.0
42.4,57.5056,1.0,1.0,1.0
42.44,68.9778,1.0,1.0,1.0
42.48,74.0,1.0,1.0,1.0
42.52,76.4944,1.0,1.0,1.0
42.56,57.0,1.0,1.0,1.0
42.6,63.5056,1.0,1.0,1.0
42.64,76.5056,1.0,1.0,1.0
42.68,61.5056,1.0,1.0,1.0
42.72,74.0,1.0,1.0,1.0
42.76,86.9889,1.0,1.0,1.0
42.8,70.5056,1.0,1.0,1.0
42.84,78.0,1.0,1.0,1.0
42.88,62.4944,1.0,1.0,1.0
42.92,70.0111,1.0,1.0,1.0
42.96,70.0111,1.0,1.0,1.0
43.0,52.4944,1.0,1.0,1.0
43.04,62.4833,1.0,1.0,1.0
43.08,73.0,1.0,1.0,1.0
43.12,98.0,1.0,1.0,1.0
43.16,78.0,1.0,1.0,1.0
43.2,73.5056,1.0,1.0,1.0
43.24,72.0,1.0,1.0,1.0
43.28,82.0111,1.0,1.0,1.0
43.32,75.0111,1.0,1.0,1.0
43.36,80.4944,1.0,1.0,1.0
43.4,61.4944,1.0,1.0,1.0
43.44,74.5056,1.0,1.0,1.0
43.48,74.9889,1.0,1.0,1.0
43.52,83.0,1.0,1.0,1.0
43.56,94.5278,1.0,1.0,1.0
43.6,84.0,1.0,1.0,1.0
43.64,72.4944,1.0,1.0,1.0
43.68,102.5056,1.0,1.0,1.0
43.72,92.5056,1.0,1.0,1.0
43.76,102.9889,1.0,1.0,1.0
43.8,98.5167,1.0,1.0,1.0
43.84,95.0111,1.0,1.0,1.0
43.88,84.0,1.0,1.0,1.0
43.92,109.9889,1.0,1.0,1.0
43.96,107.4944,1.0,1.0,1.0
44.0,127.0,1.0,1.0,1.0
44.04,93.0,1.0,1.0,1.0
44.08,117.4833,1.0,1.0,1.0
44.12,99.9889,1.0,1.0,1.0
44.16,108.0111,1.0,1.0,1.0
44.2,130.5167,1.0,1.0,1.0
44.24,136.0111,1.0,1.0,1.0
44.28,148.0,1.0,1.0,1.0
44.32,129.4944,1.0,1.0,1.0
44.36,121.5167,1.0,1.0,1.0
44.4,140.4944,1.0,1.0,1.0
44.44,127.9889,1.0,1.0,1.0
44.48,135.5167,1.0,1.0,1.0
44.52,142.4944,1.0,1.0,1.0
44.56,137.5167,1.0,1.0,1.0
44.6,129.0111,1.0,1.0,1.0
44.64,142.9889,1.0,1.0,1.0
44.68,161.4833,1.0,1.0,1.0
44.72,130.9667,1.0,1.0,1.0
44.76,179.0111,1.0,1.0,1.0
44.8,212.9889,1.0,1.0,1.0
44.84,239.9889,1.0,1.0,1.0
44.88,252.5278,1.0,1.0,1.0
44.92,229.0111,1.0,1.0,1.0
44.96,285.0333,1.0,1.0,1.0
45.0,383.4722,1.0,1.0,1.0
45.04,471.9556,1.0,1.0,1.0
45.08,545.4833,1.0,1.0,1.0
45.12,648.4833,1.0,1.0,1.0
45.16,906.0,1.0,1.0,1.0
45.2,978.0,1.0,1.0,1.0
45.24,1298.38,1.0,1.0,1.0
45.28,1462.48,1.0,1.0,1.0
45.32,1474.47,1.0,1.0,1.0
45.36,1575.98,1.0,1.0,1.0
45.4,1694.49,1.0,1.0,1.0
45.44,1832.51,1.0,1.0,1.0
45.48,2025.96,1.0,1.0,1.0
45.52,2382.47,1.0,1.0,1.0
45.56,2980.41,1.0,1.0,1.0
45.6,3843.0,1.0,1.0,1.0
45.64,4868.02,1.0,1.0,1.0
45.68,6302.51,1.0,1.0,1.0
45.72,8208.03,1.0,1.0,1.0
45.76,10471.7,1.0,1.0,1.0
45.8,12762.8,1.0,1.0,1.0
45.84,14493.2,1.0,1.0,1.0
45.88,16029.5,1.0,1.0,1.0
45.92,17157.1,1.0,1.0,1.0
45.96,17737.5,1.0,1.0,1.0
46.0,17815.1,1.0,1.0,1.0
46.04,17718.6,1.0,1.0,1.0
46.08,17338.3,1.0,1.0,1.0
46.12,17001.6,1.0,1.0,1.0
46.16,16060.3,1.0,1.0,1.0
46.2,14061.9,1.0,1.0,1.0
46.24,12135.5,1.0,1.0,1.0
46.28,9583.1,1.0,1.0,1.0
46.32,8128.99,1.0,1.0,1.0
46.36,7091.47,1.0,1.0,1.0
46.4,6620.65,1.0,1.0,1.0
46.44,6729.94,1.0,1.0,1.0
46.48,7330.1,1.0,1.0,1.0
46.52,8200.94,1.0,1.0,1.0
46.56,8594.02,1.0,1.0,1.0
46.6,8691.167,1.0,1.0,1.0
46.64,8164.59,1.0,1.0,1.0
46.68,7555.97,1.0,1.0,1.0
46.72,6615.08,1.0,1.0,1.0
46.76,5913.97,1.0,1.0,1.0
46.8,5053.11,1.0,1.0,1.0
46.84,4173.48,1.0,1.0,1.0
46.88,3488.57,1.0,1.0,1.0
46.92,2863.53,1.0,1.0,1.0
46.96,2388.45,1.0,1.0,1.0
47.0,2093.54,1.0,1.0,1.0
47.04,1942.94,1.0,1.0,1.0
47.08,1694.0,1.0,1.0,1.0
47.12,1609.04,1.0,1.0,1.0
47.16,1447.01,1.0,1.0,1.0
47.2,1459.99,1.0,1.0,1.0
47.24,1523.03,1.0,1.0,1.0
47.28,1796.94,1.0,1.0,1.0
47.32,2080.48,1.0,1.0,1.0
47.36,2556.52,1.0,1.0,1.0
47.4,2809.45,1.0,1.0,1.0
47.44,2900.11,1.0,1.0,1.0
47.48,2928.0,1.0,1.0,1.0
47.52,3036.94,1.0,1.0,1.0
47.56,3235.41,1.0,1.0,1.0
47.6,3210.0,1.0,1.0,1.0
47.64,3566.51,1.0,1.0,1.0
47.68,3908.97,1.0,1.0,1.0
47.72,4796.49,1.0,1.0,1.0
47.76,6605.96,1.0,1.0,1.0
47.8,11051.8,1.0,1.0,1.0
47.84,23152.334,1.0,1.0,1.0
47.88,60260.4,1.0,1.0,1.0
47.92,305640,1.0,1.0,1.0
47.96,1099223.625,1.0,1.0,1.0
48.0,11748200.0,1.0,1.0,1.0
48.04,2527615.5,1.0,1.0,1.0
48.08,1337746.125,1.0,1.0,1.0
48.12,79379.4,1.0,1.0,1.0
48.16,16526.4,1.0,1.0,1.0
48.2,7383.65,1.0,1.0,1.0
48.24,4361.47,1.0,1.0,1.0
48.28,2960.99,1.0,1.0,1.0
48.32,2029.54,1.0,1.0,1.0
48.36,1533.96,1.0,1.0,1.0
48.4,1169.98,1.0,1.0,1.0
48.44,934.4833,1.0,1.0,1.0
48.48,729.9889,1.0,1.0,1.0
48.52,644.5056,1.0,1.0,1.0
48.56,547.5056,1.0,1.0,1.0
48.6,441.4722,1.0,1.0,1.0
48.64,401.5278,1.0,1.0,1.0
48.68,321.9667,1.0,1.0,1.0
48.72,346.0111,1.0,1.0,1.0
48.76,349.9667,1.0,1.0,1.0
48.8,318.0,1.0,1.0,1.0
48.84,283.9889,1.0,1.0,1.0
48.88,279.5056,1.0,1.0,1.0
48.92,269.9889,1.0,1.0,1.0
48.96,271.9778,1.0,1.0,1.0
49.0,224.0,1.0,1.0,1.0
49.04,198.0333,1.0,1.0,1.0
49.08,202.4944,1.0,1.0,1.0
49.12,177.4944,1.0,1.0,1.0
49.16,153.0,1.0,1.0,1.0
49.2,139.4944,1.0,1.0,1.0
49.24,135.4944,1.0,1.0,1.0
49.28,113.5056,1.0,1.0,1.0
49.32,139.4722,1.0,1.0,1.0
49.36,127.9778,1.0,1.0,1.0
49.4,119.4944,1.0,1.0,1.0
49.44,98.9889,1.0,1.0,1.0
49.48,96.0,1.0,1.0,1.0
49.52,126.0111,1.0,1.0,1.0
49.56,87.4944,1.0,1.0,1.0
49.6,87.4833,1.0,1.0,1.0
49.64,93.4944,1.0,1.0,1.0
49.68,91.4833,1.0,1.0,1.0
49.72,101.4944,1.0,1.0,1.0
49.76,84.5056,1.0,1.0,1.0
49.8,89.4944,1.0,1.0,1.0
49.84,69.4944,1.0,1.0,1.0
49.88,91.5056,1.0,1.0,1.0
49.92,74.9889,1.0,1.0,1.0
49.96,75.9889,1.0,1.0,1.0
50.0,86.0111,1.0,1.0,1.0
50.04,64.4944,1.0,1.0,1.0
50.08,91.0111,1.0,1.0,1.0
50.12,65.5056,1.0,1.0,1.0
50.16,58.0111,1.0,1.0,1.0
50.2,39.0,1.0,1.0,1.0
50.24,60.5056,1.0,1.0,1.0
50.28,84.4944,1.0,1.0,1.0
50.32,45.5056,1.0,1.0,1.0
50.36,59.0,1.0,1.0,1.0
50.4,56.9889,1.0,1.0,1.0
50.44,55.5167,1.0,1.0,1.0
50.48,62.5167,1.0,1.0,1.0
50.52,52.4944,1.0,1.0,1.0
50.56,68.9889,1.0,1.0,1.0
50.6,67.0,1.0,1.0,1.0
50.64,58.0111,1.0,1.0,1.0
50.68,69.0111,1.0,1.0,1.0
50.72,45.5056,1.0,1.0,1.0
50.76,65.5056,1.0,1.0,1.0
50.8,69.0111,1.0,1.0,1.0
50.84,55.0,1.0,1.0,1.0
50.88,53.0,1.0,1.0,1.0
50.92,73.9889,1.0,1.0,1.0
50.96,47.5056,1.0,1.0,1.0
51.0,54.0111,1.0,1.0,1.0
51.04,56.0,1.0,1.0,1.0
51.08,61.0111,1.0,1.0,1.0
51.12,24.5167,1.0,1.0,1.0
51.16,39.4944,1.0,1.0,1.0
51.2,41.0,1.0,1.0,1.0
51.24,40.0111,1.0,1.0,1.0
51.28,48.4944,1.0,1.0,1.0
51.32,44.0,1.0,1.0,1.0
51.36,48.4944,1.0,1.0,1.0
51.4,46.0,1.0,1.0,1.0
51.44,44.0,1.0,1.0,1.0
51.48,49.0111,1.0,1.0,1.0
51.52,53.4944,1.0,1.0,1.0
51.56,33.5056,1.0,1.0,1.0
51.6,53.0111,1.0,1.0,1.0
51.64,80.0111,1.0,1.0,1.0
51.68,56.0111,1.0,1.0,1.0
51.72,58.0111,1.0,1.0,1.0
51.76,46.0,1.0,1.0,1.0
51.8,60.0,1.0,1.0,1.0
51.84,64.0,1.0,1.0,1.0
51.88,42.0,1.0,1.0,1.0
51.92,63.0111,1.0,1.0,1.0
51.96,50.4944,1.0,1.0,1.0
52.0,56.4944,1.0,1.0,1.0