File: XRD:XRR/SCO/22170_SL(CO)L/22170_SL(CO)L_001_XRD_2.csv
#twotheta, yobs, ycal, bkg, diff
17.0,28.008,1.0,1.0,1.0
17.06,51.0,1.0,1.0,1.0
17.12,48.504,1.0,1.0,1.0
17.18,44.008,1.0,1.0,1.0
17.24,42.504,1.0,1.0,1.0
17.3,31.504,1.0,1.0,1.0
17.36,33.496,1.0,1.0,1.0
17.42,52.504,1.0,1.0,1.0
17.48,39.504,1.0,1.0,1.0
17.54,35.008,1.0,1.0,1.0
17.6,38.008,1.0,1.0,1.0
17.66,44.496,1.0,1.0,1.0
17.72,53.504,1.0,1.0,1.0
17.78,38.504,1.0,1.0,1.0
17.84,47.496,1.0,1.0,1.0
17.9,45.008,1.0,1.0,1.0
17.96,49.0,1.0,1.0,1.0
18.02,46.4881,1.0,1.0,1.0
18.08,56.496,1.0,1.0,1.0
18.14,46.504,1.0,1.0,1.0
18.2,57.504,1.0,1.0,1.0
18.26,61.0,1.0,1.0,1.0
18.32,50.0,1.0,1.0,1.0
18.38,55.504,1.0,1.0,1.0
18.44,55.504,1.0,1.0,1.0
18.5,46.008,1.0,1.0,1.0
18.56,42.504,1.0,1.0,1.0
18.62,34.0,1.0,1.0,1.0
18.68,27.504,1.0,1.0,1.0
18.74,43.496,1.0,1.0,1.0
18.8,54.504,1.0,1.0,1.0
18.86,43.4881,1.0,1.0,1.0
18.92,55.0,1.0,1.0,1.0
18.98,70.992,1.0,1.0,1.0
19.04,54.0,1.0,1.0,1.0
19.1,59.008,1.0,1.0,1.0
19.16,63.008,1.0,1.0,1.0
19.22,65.992,1.0,1.0,1.0
19.28,56.4881,1.0,1.0,1.0
19.34,65.496,1.0,1.0,1.0
19.4,53.496,1.0,1.0,1.0
19.46,45.496,1.0,1.0,1.0
19.52,53.992,1.0,1.0,1.0
19.58,35.496,1.0,1.0,1.0
19.64,70.5119,1.0,1.0,1.0
19.7,56.008,1.0,1.0,1.0
19.76,59.008,1.0,1.0,1.0
19.82,43.0,1.0,1.0,1.0
19.88,62.0,1.0,1.0,1.0
19.94,64.504,1.0,1.0,1.0
20.0,64.504,1.0,1.0,1.0
20.06,61.504,1.0,1.0,1.0
20.12,58.496,1.0,1.0,1.0
20.18,65.504,1.0,1.0,1.0
20.24,72.504,1.0,1.0,1.0
20.3,53.496,1.0,1.0,1.0
20.36,57.992,1.0,1.0,1.0
20.42,54.496,1.0,1.0,1.0
20.48,39.504,1.0,1.0,1.0
20.54,51.4881,1.0,1.0,1.0
20.6,69.008,1.0,1.0,1.0
20.66,54.008,1.0,1.0,1.0
20.72,68.0,1.0,1.0,1.0
20.78,41.992,1.0,1.0,1.0
20.84,52.504,1.0,1.0,1.0
20.9,68.0,1.0,1.0,1.0
20.96,59.992,1.0,1.0,1.0
21.02,70.0,1.0,1.0,1.0
21.08,78.008,1.0,1.0,1.0
21.14,80.0,1.0,1.0,1.0
21.2,81.496,1.0,1.0,1.0
21.26,89.496,1.0,1.0,1.0
21.32,87.0,1.0,1.0,1.0
21.38,91.008,1.0,1.0,1.0
21.44,75.0,1.0,1.0,1.0
21.5,100.008,1.0,1.0,1.0
21.56,110.992,1.0,1.0,1.0
21.62,132.0,1.0,1.0,1.0
21.68,179.4881,1.0,1.0,1.0
21.74,252.4881,1.0,1.0,1.0
21.8,399.4721,1.0,1.0,1.0
21.86,522.0079,1.0,1.0,1.0
21.92,667.9921,1.0,1.0,1.0
21.98,785.0398,1.0,1.0,1.0
22.04,990.4801,1.0,1.0,1.0
22.1,1110.512,1.0,1.0,1.0
22.16,1145.0,1.0,1.0,1.0
22.22,1205.02,1.0,1.0,1.0
22.28,1444.512,1.0,1.0,1.0
22.34,1606.06,1.0,1.0,1.0
22.4,1839.53,1.0,1.0,1.0
22.46,2355.08,1.0,1.0,1.0
22.52,3237.54,1.0,1.0,1.0
22.58,3990.53,1.0,1.0,1.0
22.64,4598.55,1.0,1.0,1.0
22.7,5394.54,1.0,1.0,1.0
22.76,5883.98,1.0,1.0,1.0
22.82,4888.52,1.0,1.0,1.0
22.88,3532.99,1.0,1.0,1.0
22.94,2987.46,1.0,1.0,1.0
23.0,3030.94,1.0,1.0,1.0
23.06,2856.99,1.0,1.0,1.0
23.12,3036.02,1.0,1.0,1.0
23.18,3614.01,1.0,1.0,1.0
23.24,4678.46,1.0,1.0,1.0
23.3,7359.49,1.0,1.0,1.0
23.36,31709.4,1.0,1.0,1.0
23.42,1059364.25,1.0,1.0,1.0
23.48,1044726.375,1.0,1.0,1.0
23.54,180936.25,1.0,1.0,1.0
23.6,9432.4,1.0,1.0,1.0
23.66,3508.52,1.0,1.0,1.0
23.72,1740.02,1.0,1.0,1.0
23.78,1172.0,1.0,1.0,1.0
23.84,818.0,1.0,1.0,1.0
23.9,534.5279,1.0,1.0,1.0
23.96,368.0,1.0,1.0,1.0
24.02,210.0,1.0,1.0,1.0
24.08,115.5119,1.0,1.0,1.0
24.14,118.5119,1.0,1.0,1.0
24.2,121.504,1.0,1.0,1.0
24.26,129.008,1.0,1.0,1.0
24.32,95.504,1.0,1.0,1.0
24.38,94.008,1.0,1.0,1.0
24.44,100.0,1.0,1.0,1.0
24.5,102.008,1.0,1.0,1.0
24.56,81.4881,1.0,1.0,1.0
24.62,109.0,1.0,1.0,1.0
24.68,81.504,1.0,1.0,1.0
24.74,90.008,1.0,1.0,1.0
24.8,99.504,1.0,1.0,1.0
24.86,76.5119,1.0,1.0,1.0
24.92,67.496,1.0,1.0,1.0
24.98,57.0,1.0,1.0,1.0
25.04,59.008,1.0,1.0,1.0
25.1,62.008,1.0,1.0,1.0
25.16,47.504,1.0,1.0,1.0
25.22,49.0,1.0,1.0,1.0
25.28,50.4881,1.0,1.0,1.0
25.34,44.992,1.0,1.0,1.0
25.4,53.496,1.0,1.0,1.0
25.46,29.496,1.0,1.0,1.0
25.52,42.0,1.0,1.0,1.0
25.58,33.992,1.0,1.0,1.0
25.64,44.0,1.0,1.0,1.0
25.7,45.4881,1.0,1.0,1.0
25.76,38.008,1.0,1.0,1.0
25.82,39.504,1.0,1.0,1.0
25.88,27.992,1.0,1.0,1.0
25.94,44.992,1.0,1.0,1.0
26.0,42.504,1.0,1.0,1.0
26.06,52.4881,1.0,1.0,1.0
26.12,48.0,1.0,1.0,1.0
26.18,41.0,1.0,1.0,1.0
26.24,41.496,1.0,1.0,1.0
26.3,33.0,1.0,1.0,1.0
26.36,47.0,1.0,1.0,1.0
26.42,17.0,1.0,1.0,1.0
26.48,22.0,1.0,1.0,1.0
26.54,33.992,1.0,1.0,1.0
26.6,25.504,1.0,1.0,1.0
26.66,20.504,1.0,1.0,1.0
26.72,49.496,1.0,1.0,1.0
26.78,28.496,1.0,1.0,1.0
26.84,42.504,1.0,1.0,1.0
26.9,33.504,1.0,1.0,1.0
26.96,34.0,1.0,1.0,1.0
27.02,44.008,1.0,1.0,1.0
27.08,24.496,1.0,1.0,1.0
27.14,23.504,1.0,1.0,1.0
27.2,39.496,1.0,1.0,1.0
27.26,44.0,1.0,1.0,1.0
27.32,39.008,1.0,1.0,1.0
27.38,26.496,1.0,1.0,1.0
27.44,31.496,1.0,1.0,1.0
27.5,31.992,1.0,1.0,1.0
27.56,38.0,1.0,1.0,1.0
27.62,25.504,1.0,1.0,1.0
27.68,29.992,1.0,1.0,1.0
27.74,21.0,1.0,1.0,1.0
27.8,48.0,1.0,1.0,1.0
27.86,32.504,1.0,1.0,1.0
27.92,30.0,1.0,1.0,1.0
27.98,39.008,1.0,1.0,1.0
28.04,24.504,1.0,1.0,1.0
28.1,20.0,1.0,1.0,1.0
28.16,28.0,1.0,1.0,1.0
28.22,27.0,1.0,1.0,1.0
28.28,17.0,1.0,1.0,1.0
28.34,19.008,1.0,1.0,1.0
28.4,17.496,1.0,1.0,1.0
28.46,25.504,1.0,1.0,1.0
28.52,29.0,1.0,1.0,1.0
28.58,27.0,1.0,1.0,1.0
28.64,29.504,1.0,1.0,1.0
28.7,24.496,1.0,1.0,1.0
28.76,20.496,1.0,1.0,1.0
28.82,29.0,1.0,1.0,1.0
28.88,26.0,1.0,1.0,1.0
28.94,31.504,1.0,1.0,1.0
29.0,13.0,1.0,1.0,1.0
0.45,380080.0,1.0,1.0,1.0
0.51,406417.5,1.0,1.0,1.0
0.57,394035.5,1.0,1.0,1.0
0.63,339256.0,1.0,1.0,1.0
0.69,252179,1.0,1.0,1.0
0.75,166050,1.0,1.0,1.0
0.81,99987,1.0,1.0,1.0
0.87,55938,1.0,1.0,1.0
0.93,28161.5,1.0,1.0,1.0
0.99,13722,1.0,1.0,1.0
1.05,8685.5,1.0,1.0,1.0
1.11,7211.5,1.0,1.0,1.0
1.17,5606.001,1.0,1.0,1.0
1.23,4172.5,1.0,1.0,1.0
1.29,2719,1.0,1.0,1.0
1.35,1824.5,1.0,1.0,1.0
1.41,1762,1.0,1.0,1.0
1.47,2902.5,1.0,1.0,1.0
1.53,3647.5,1.0,1.0,1.0
1.59,3084,1.0,1.0,1.0
1.65,1935,1.0,1.0,1.0
1.71,1407.5,1.0,1.0,1.0
1.77,1188,1.0,1.0,1.0
1.83,1001.0,1.0,1.0,1.0
1.89,819.5002,1.0,1.0,1.0
1.95,746.4999,1.0,1.0,1.0
2.01,694.0,1.0,1.0,1.0
2.07,618.0001,1.0,1.0,1.0
2.13,566.4999,1.0,1.0,1.0
2.19,374.9999,1.0,1.0,1.0
2.25,350.4999,1.0,1.0,1.0
2.31,303.5003,1.0,1.0,1.0
2.37,268.5003,1.0,1.0,1.0
2.43,258.4999,1.0,1.0,1.0
2.49,226.5001,1.0,1.0,1.0
2.55,177.0002,1.0,1.0,1.0
2.61,143.0001,1.0,1.0,1.0
2.67,159.4999,1.0,1.0,1.0
2.73,171.0,1.0,1.0,1.0
2.79,190.4999,1.0,1.0,1.0
2.85,160.5001,1.0,1.0,1.0
2.91,129.4999,1.0,1.0,1.0
2.97,99.9999,1.0,1.0,1.0
3.03,101.5001,1.0,1.0,1.0
3.09,107.0,1.0,1.0,1.0
3.15,91.4999,1.0,1.0,1.0
3.21,105.0,1.0,1.0,1.0
3.27,109.0001,1.0,1.0,1.0
3.33,167.9999,1.0,1.0,1.0
3.39,135.9999,1.0,1.0,1.0
3.45,96.4998,1.0,1.0,1.0
3.51,94.9999,1.0,1.0,1.0
3.57,70.5001,1.0,1.0,1.0
3.63,60.0,1.0,1.0,1.0
3.69,74.9999,1.0,1.0,1.0
3.75,72.0001,1.0,1.0,1.0
3.81,60.0,1.0,1.0,1.0
3.87,76.0,1.0,1.0,1.0
3.93,77.4999,1.0,1.0,1.0
3.99,89.5002,1.0,1.0,1.0
4.05,46.0001,1.0,1.0,1.0
4.11,72.5001,1.0,1.0,1.0
4.17,72.0001,1.0,1.0,1.0
4.23,68.0,1.0,1.0,1.0
4.29,68.4999,1.0,1.0,1.0
4.35,79.0,1.0,1.0,1.0
4.41,71.0001,1.0,1.0,1.0
4.47,52.0,1.0,1.0,1.0
4.5,43.0,1.0,1.0,1.0