File: XRD:XRR/SCO/22170_SL(CO)L/22170_SL(CO)L_001_XRD_2_2-Theta_Omega.asc
*TYPE		=  Raw
*CLASS		=  ASCII CLASS
*SAMPLE		=
*COMMENT	=
*FNAME		=  22170_SL(CO)L_001_XRD_2_2-Theta_Omega.asc
*DATE		=  07-Jan-23 09:36

*GROUP_COUNT	=  1
*GONIO		=  SmartLab(In-plane), 0.000000
*ATTACHMENT	=  Z-Phi Stage
*ASC		=  0, 0, 0.000000, 0.000000
*I_MONOCHRO	=  Ge(220)x2, 0.000000
*FILTER		=  None
*C_MONOCHRO	=  None, 0.000000
*SLIT_NAME	=  0, Incident slit
*SLIT_NAME	=  1, Receiving slit # 1
*SLIT_NAME	=  2, Receiving slit # 2
*COUNTER	=  D/teX Ultra 250, 0
*POS_FORMAT	=  0
*SCAN_AXIS	=  2Theta/Omega
*MEAS_MODE	=  Continuous Scanning
*TARGET		=  29
*XRAY_CHAR	=  K-ALPHA1
*WAVE_LENGTH1	=  1.54059
*WAVE_LENGTH2	=  1.54441
*THICKNESS	=  0, 0.000000
*MU		=  0, 0.000000
*SCAN_MODE	=  2Theta/Omega
*SPEED_DIM	=  sec./step
*XUNIT		=  deg.
*YUNIT		=  counts
*SCALE_MODE	=  1
*REP_COUNT	=  0
*SE_COUNT	=  0
*STD_MATERIAL	=  Unknown, Unknown, 0.000000, 0.000000, 0.000000, 0.000000, 0.000000, 0.000000
*LATT_CONS	=  0, Unknown, Unknown, 0.000000, 0.000000, 0.000000, 0.000000, 0.000000, 0.000000
*SEC_COUNT	=  2
*TSPEC_SIZE	=  0
*EXTRA_SIZE	=  0
*MEMO		=

*BEGIN
*GROUP		=  0
*START		=  17
*STOP		=  29
*STEP		=  0.01
*OFFSET		=  -0.297600
*SPEED		=  59.958
*SLIT_SPEC	=  0, 0.400mm, 0.4, 0.000000
*SLIT_SPEC	=  1, 0.400mm, 0.4, 0.000000
*SLIT_SPEC	=  2, 0.400mm, 0.4, 0.000000
*KV		=  40
*MA		=  30
*LOW		=  0.000000
*HIGH		=  0.000000
*CTEMPER	=  0, 0.000000
*CTEMPER	=  1, 0.000000
*CTEMPER	=  2, 0.000000
*PAREX		=  0, 0.000000
*PAREX		=  1, 0.000000
*PAREX		=  2, 0.000000
*PAREX		=  3, 0.000000
*PAREX		=  4, 0.000000
*PAREX		=  5, 0.000000
*PAREX		=  6, 0.000000
*PAREX		=  7, 0.000000
*PAREX		=  8, 0.000000
*PAREX		=  9, 0.000000
*PAREX		=  10, 0.000000
*PAREX		=  11, 0.000000
*PAREX		=  12, 0.000000
*PAREX		=  13, 0.000000
*PAREX		=  14, 0.000000
*PAREX		=  15, 0.000000
*FULL_SCALE	=  58067.6
*INDEX		=  0, 0, 0
*COUNT		=  1201
28.008, 62.992, 45, 45.008
58.496, 39.008, 67.504, 32.992
34, 25.496, 44.008, 53
42.504, 47.504, 41.9841, 47.504
55, 47.496, 40, 56.504
56.504, 28.496, 52.504, 54.496
39.504, 46, 59.504, 49.992
41.504, 65.496, 49.504, 54.496
47.496, 67.504, 44.496, 40.504
53.504, 44.496, 48.008, 48
22.0159, 52.992, 62.992, 46.008
69.008, 42.992, 45.008, 50
49, 25.496, 35.008, 47.496
39, 32, 26.504, 39.504
52, 47.496, 46.504, 80
57.504, 42.992, 61.504, 42.496
49.4881, 32, 62, 58.504
52.008, 48.992, 55.504, 33.496
55.504, 63, 29.992, 40.504
60.504, 58.496, 49.504, 44
40.496, 60.504, 34, 47.496
27.504, 43, 48.496, 37.504
31.5199, 51.4801, 39.008, 33.992
49.992, 62.008, 43.4881, 46.008
55, 57.5119, 39.992, 36.496
55.504, 53.992, 41.504, 59
54.5119, 55.4881, 59.008, 39
63.008, 47.496, 58.496, 52
39, 46, 37.504, 53.008
39, 32, 65.496, 36.008
53.496, 27.504, 67.5119, 47.9841
52.4881, 54.504, 59, 43.504
51.504, 44.496, 35.496, 52.504
70.5119, 59.4881, 45, 49
50, 72.504, 50.496, 100
59, 50.4881, 43, 45
62, 48.008, 73.496, 42.496
50.008, 58.504, 71.496, 45.992
40.504, 64.4881, 61.504, 58.496
58.496, 41.5119, 46.4881, 34
44, 65, 72.496, 59.504
62.992, 61.5119, 53.496, 62.496
57.992, 61, 61.5119, 55.992
40.992, 98.008, 81.496, 52.496
73, 58.008, 51.4881, 41
69.008, 47.992, 52.504, 47.504
57, 49.504, 46.496, 31.5119
60.008, 65, 41.992, 62.008
52.504, 72, 50.504, 78.992
65.504, 69.008, 51.496, 82
53.5119, 86.992, 70, 52.992
78.008, 82, 84.008, 74.4881
91.504, 80.504, 105.504, 95.992
88.5119, 78, 89.496, 90.496
87, 99.496, 101.504, 83
100.504, 106.496, 79.504, 99.992
109.504, 126.992, 100.008, 99.496
110.992, 103, 124.504, 126.496
150.504, 172.992, 150.496, 173.016
257.008, 276.008, 252.488, 297
399.472, 377.504, 425.512, 464.512
601.008, 607, 647.008, 716
765.488, 795.984, 785.04, 816.488
990.48, 986.048, 1042.46, 1049.06
1102.99, 1220.53, 1153.99, 1110.01
1145.48, 1133.46, 1205.02, 1167.54
1444.51, 1475.95, 1520.52, 1481.99
1627.46, 1635.01, 1678.96, 1723.58
2178.02, 2275.5, 2355.08, 2510.45
3237.54, 3414.45, 3512.66, 3657.45
4345.02, 4191.94, 4320.07, 4446.98
5196.96, 5395.44, 5394.54, 5663.6
5883.98, 5671.54, 5587.01, 5504.5
4544.01, 4186.54, 3990.43, 3678.96
3008.97, 2992.46, 2987.46, 3006.06
3030.94, 3058.46, 3127.04, 3034.97
2914.97, 2853.01, 2913.02, 2848.5
3283.03, 3534.95, 3614.01, 3637.04
4678.46, 4904.99, 5347.52, 5652.06
9944.11, 11654.8, 14585.2, 20342.2
1379195, 1140850, 1059364.3, 1237758.8
1044726.4, 1280581.4, 1730104.3, 2285970
34396.9, 22656.3, 16064, 12129.8
4510.83, 3976.49, 3508.52, 2958.45
1740.02, 1753.5, 1515.98, 1439.01
1002.98, 964, 931.016, 793.48
631.032, 560.448, 534.528, 526.504
368, 349.016, 312.488, 297.504
196.496, 186.016, 189.984, 151.496
134.008, 125.48, 118.512, 105.496
121.504, 155.992, 159.992, 117.504
121, 112, 119.992, 130.992
114.008, 141.992, 94.008, 126.496
100, 114, 90.496, 115
95, 96, 109, 82.504
88.4881, 80.504, 109, 102.512
81.504, 105, 97.496, 104.992
119.992, 81.0159, 103.496, 81.496
65.008, 70.992, 76.5119, 95.992
67.496, 60, 52, 59
64.504, 69.496, 52.496, 48.504
65, 51, 62.008, 64.496
47.504, 69.008, 52.992, 60.992
46.992, 36.008, 62.992, 52.5119
39.008, 33.496, 44.992, 35.008
53.496, 41.504, 35.504, 72.496
43, 33.504, 45.504, 46.496
36.5119, 39.496, 33.992, 58
44, 69.992, 48.504, 25.496
46.504, 35.496, 42.504, 46.496
25, 29, 39.504, 33.504
27.992, 30.008, 38.992, 64
35.496, 50.0159, 44.4881, 39.496
56, 53.008, 52.4881, 38
48, 52, 46.504, 60.496
68, 42.504, 33, 28
32, 23, 33, 26
47, 23.008, 37.992, 51.008
23, 39.008, 32.992, 32
35.504, 30.504, 33.992, 28.504
25.504, 30.496, 28.504, 20.496
26, 45.496, 45, 48.008
36.496, 31, 28.496, 35
42.504, 38.992, 25, 49
44, 24.504, 31.504, 30.992
36, 54.496, 44.008, 31.992
24.496, 45, 20.504, 21.496
26, 24, 20, 17.504
32.008, 25.992, 44, 32
39.008, 32.992, 40, 36
29, 31.008, 39.496, 26
36, 25.008, 31.992, 23
38, 15, 27.504, 41
38.504, 37.496, 32, 43.5119
19.496, 31, 21, 18.504
48, 27.496, 23, 47.008
19, 28.504, 27, 25
26.496, 28, 39.008, 26.992
24.504, 38, 21.504, 28.496
26, 35.504, 21.496, 21
25, 27.992, 27, 28
17, 60.504, 41.496, 42
31.504, 41.504, 22.992, 15.504
23, 18, 25.504, 20.496
29, 18.504, 28.504, 23.992
42.504, 34.504, 22.496, 38
26, 26.504, 24.496, 32
20.496, 18, 27, 20.504
30, 12, 29, 31
28.008, 18.992, 31.504, 20
13
*END

*BEGIN
*GROUP		=  0
*START		=  0.4
*STOP		=  4.5
*STEP		=  0.01
*OFFSET		=  -0.297600
*SPEED		=  5.95853
*SLIT_SPEC	=  0, 1.000mm, 1, 0.000000
*SLIT_SPEC	=  1, 1.000mm, 1, 0.000000
*SLIT_SPEC	=  2, 1.000mm, 1, 0.000000
*KV		=  40
*MA		=  30
*LOW		=  0.000000
*HIGH		=  0.000000
*CTEMPER	=  0, 0.000000
*CTEMPER	=  1, 0.000000
*CTEMPER	=  2, 0.000000
*PAREX		=  0, 0.000000
*PAREX		=  1, 0.000000
*PAREX		=  2, 0.000000
*PAREX		=  3, 0.000000
*PAREX		=  4, 0.000000
*PAREX		=  5, 0.000000
*PAREX		=  6, 0.000000
*PAREX		=  7, 0.000000
*PAREX		=  8, 0.000000
*PAREX		=  9, 0.000000
*PAREX		=  10, 0.000000
*PAREX		=  11, 0.000000
*PAREX		=  12, 0.000000
*PAREX		=  13, 0.000000
*PAREX		=  14, 0.000000
*PAREX		=  15, 0.000000
*FULL_SCALE	=  84282.6
*INDEX		=  0, 0, 0
*COUNT		=  411
335933, 346531, 354857, 363833
371741, 380080, 386321, 392026
396788, 399978, 404084, 406418
408154, 407140, 407676, 403695
398427, 394036, 387985, 380759
371633, 362360, 351957, 339256
325534, 310191, 297492, 282795
267106, 252179, 237057, 221851
207291, 193027, 180107, 166050
153863, 141704, 130367, 119227
109920, 99987, 91373, 83785
75414, 68828.5, 62108.5, 55938
50066.5, 44843, 39824.5, 35836.5
32020.5, 28161.5, 24835.5, 22446
19740.5, 17633.5, 15302.5, 13722
12238, 11207.5, 10130, 9520.5
8926, 8685.5, 8374, 8312
7742.5, 7734.5, 7628.5, 7211.5
7087, 6808.5, 6536, 6113.5
5742, 5606, 5295.5, 4938.5
4837.5, 4608, 4268, 4172.5
3809.5, 3515.5, 3515, 3237
3122.5, 2719, 2664.5, 2470.5
2116, 2045, 1941, 1824.5
1710.5, 1620, 1547.5, 1702.5
1661.5, 1762, 1996, 2137.5
2331.5, 2470, 2654, 2902.5
3199.5, 3290, 3552.5, 3647.5
3696.5, 3647.5, 3643.5, 3776
3672.5, 3337.5, 3185, 3084
2805, 2670.5, 2461.5, 2311
2189, 1935, 1909, 1790.5
1663, 1562.5, 1561.5, 1407.5
1481.5, 1374, 1272.5, 1316.5
1174, 1188, 1158, 1099.5
1051, 1070, 986.5, 1001
968.501, 909.5, 846, 890.5
852.5, 819.5, 868, 842.5
778.5, 774.5, 810.5, 746.5
733.5, 766, 729, 688.5
754, 694, 705, 699.5
640, 655, 616.5, 618
587, 627, 605.5, 541.5
547.5, 566.5, 476, 429.5
434.5, 404, 396.5, 375
391.5, 357.5, 314.5, 346
341.5, 350.5, 299, 343
306, 299.5, 298, 303.5
301.5, 306, 299, 297.5
293.5, 268.5, 254.5, 256.5
242.5, 235.5, 235, 258.5
242, 203.5, 214.5, 219.5
201, 226.5, 213.5, 210.5
155, 197, 191, 177
164.5, 155, 188.5, 156
156, 143, 159, 156
133.5, 167, 144, 159.5
134.5, 129.5, 139.5, 147
170.5, 171, 153, 188
175.5, 203, 193.5, 190.5
197, 182, 148, 152.5
152, 160.5, 160, 162
142, 151.5, 106.5, 129.5
136, 123.5, 112, 93.4998
130, 99.9999, 75.5001, 96.4999
85.5001, 127, 116, 101.5
116.5, 82, 102, 117
75.5003, 107, 96, 94.5001
106, 89, 84.5001, 91.4999
96.4999, 84.5001, 97.5001, 110.5
95.4999, 105, 99.5001, 89.0001
88, 116.5, 126.5, 109
119.5, 157.5, 144.5, 174.5
149, 168, 129, 150
178.5, 187, 139.5, 136
139, 123.5, 140, 111
113.5, 96.4998, 140.5, 89.4998
111, 113.5, 63.5002, 94.9999
76.0001, 72.5001, 64.9999, 72.9999
89.5002, 70.5001, 72, 49
78.4998, 74.0001, 74, 60
84.9999, 93.5002, 60.9999, 81.5001
65.4999, 74.9999, 85.0001, 68.4999
68.0001, 57.4999, 63, 72.0001
64, 72.9999, 77.4999, 66.5001
64.5001, 60, 95.9999, 82.4999
68, 72.5001, 78.5002, 76
59.4999, 53, 76.5001, 84.9998
66.5002, 77.4999, 71.5001, 64.9999
63.5001, 75, 76.4999, 89.5002
78.4998, 97.4999, 89.0002, 93.9999
91.4999, 46.0001, 81.4999, 63.0001
59.9999, 76, 91.5001, 72.5001
74.4998, 57.0001, 77.4999, 56.5001
45.9999, 72.0001, 42.4999, 74.5001
69.4999, 62.0001, 73.9998, 68
83.5002, 69.5001, 83, 65
55, 68.4999, 56.4999, 70.5001
65.9999, 73, 55.5001, 79
57.5001, 64.4999, 67.0001, 48.4998
67.5001, 71.0001, 64, 67.4998
66, 56.0001, 62, 52
58.4999, 62, 43
*END

*EOF