File: XRD:XRR/SCO/22102_S(CT)OL/22102_S(CT)OL_XRD_notAnn_2-Theta_Omega.asc
*TYPE		=  Raw
*CLASS		=  ASCII CLASS
*SAMPLE		=
*COMMENT	=
*FNAME		=  22102_S(CT)OL_XRD_notAnn_2-Theta_Omega.asc
*DATE		=  25-Jun-22 07:27

*GROUP_COUNT	=  1
*GONIO		=  SmartLab(In-plane), 0.000000
*ATTACHMENT	=  Z-Phi Stage
*ASC		=  0, 0, 0.000000, 0.000000
*I_MONOCHRO	=  Ge(220)x2, 0.000000
*FILTER		=  None
*C_MONOCHRO	=  None, 0.000000
*SLIT_NAME	=  0, Incident slit
*SLIT_NAME	=  1, Receiving slit # 1
*SLIT_NAME	=  2, Receiving slit # 2
*COUNTER	=  D/teX Ultra 250, 0
*POS_FORMAT	=  0
*SCAN_AXIS	=  2Theta/Omega
*MEAS_MODE	=  Continuous Scanning
*TARGET		=  29
*XRAY_CHAR	=  K-ALPHA1
*WAVE_LENGTH1	=  1.54059
*WAVE_LENGTH2	=  1.54441
*THICKNESS	=  0, 0.000000
*MU		=  0, 0.000000
*SCAN_MODE	=  2Theta/Omega
*SPEED_DIM	=  sec./step
*XUNIT		=  deg.
*YUNIT		=  counts
*SCALE_MODE	=  1
*REP_COUNT	=  0
*SE_COUNT	=  0
*STD_MATERIAL	=  Unknown, Unknown, 0.000000, 0.000000, 0.000000, 0.000000, 0.000000, 0.000000
*LATT_CONS	=  0, Unknown, Unknown, 0.000000, 0.000000, 0.000000, 0.000000, 0.000000, 0.000000
*SEC_COUNT	=  1
*TSPEC_SIZE	=  0
*EXTRA_SIZE	=  0
*MEMO		=

*BEGIN
*GROUP		=  0
*START		=  42
*STOP		=  52
*STEP		=  0.01
*OFFSET		=  0.0115
*SPEED		=  59.958
*SLIT_SPEC	=  0, 0.500mm, 0.5, 0.000000
*SLIT_SPEC	=  1, 0.500mm, 0.5, 0.000000
*SLIT_SPEC	=  2, 0.500mm, 0.5, 0.000000
*KV		=  40
*MA		=  30
*LOW		=  0.000000
*HIGH		=  0.000000
*CTEMPER	=  0, 0.000000
*CTEMPER	=  1, 0.000000
*CTEMPER	=  2, 0.000000
*PAREX		=  0, 0.000000
*PAREX		=  1, 0.000000
*PAREX		=  2, 0.000000
*PAREX		=  3, 0.000000
*PAREX		=  4, 0.000000
*PAREX		=  5, 0.000000
*PAREX		=  6, 0.000000
*PAREX		=  7, 0.000000
*PAREX		=  8, 0.000000
*PAREX		=  9, 0.000000
*PAREX		=  10, 0.000000
*PAREX		=  11, 0.000000
*PAREX		=  12, 0.000000
*PAREX		=  13, 0.000000
*PAREX		=  14, 0.000000
*PAREX		=  15, 0.000000
*FULL_SCALE	=  89169.4
*INDEX		=  0, 0, 0
*COUNT		=  1001
27.4944, 30.5056, 20.4944, 21.5056
20, 23.4944, 31, 33.5056
12, 16.4944, 10.5056, 15.4944
16, 30, 20.5056, 35
29, 22, 14, 34
10, 12, 27, 16.4944
17, 20.5056, 14, 15
21, 27.9889, 14.0111, 29
26, 24, 38.4944, 26.5056
27.4944, 20.5056, 21.4944, 20.4944
11, 25.0111, 7.49445, 23
15, 27.5056, 14, 31
18, 13, 13, 21
34, 22.4944, 25.5056, 29.4944
41.4944, 20.0111, 17, 16
31, 30, 25, 12
16, 28, 13, 27.4944
13.5056, 34, 31.9889, 30.5056
25.5056, 22.4944, 21.5056, 31
22, 25.4944, 22, 33
26.5056, 31.4944, 10.5056, 69.4944
23.5056, 26.4944, 39, 27.5056
25, 38, 8, 21
14, 21, 15, 20.9889
25.5056, 16.5056, 27, 31
20, 27, 36, 35
24, 18, 29.9889, 24.5056
30, 25.5056, 28.4944, 33.4944
27.0111, 22.9889, 24.0111, 40.4944
25.5056, 18, 18, 25.4944
32.5056, 27, 31, 36.4944
21.5056, 21, 30, 18.9889
24.0111, 47, 26, 33
30, 44.9889, 41.0111, 42.4944
48, 41.5056, 31.4944, 39.5056
44.4944, 37.5056, 29.4944, 27.5056
40.4944, 49.5056, 27, 37.4944
47.5056, 50, 37.4944, 33
31, 34.9889, 49.0111, 56
60, 26, 32.5056, 41
54.9889, 61.0111, 53.4944, 56.9889
60.0111, 52.4944, 41.5056, 38
48.5056, 51.4944, 70.4944, 45.5056
59.5056, 59.9889, 51, 53.0111
58.4944, 51.5056, 67.4944, 48.5056
74.4944, 61.4944, 52.0111, 53.9889
46.5056, 43, 61.5056, 65.9889
68, 47.5056, 75, 63.9889
62, 77.4944, 58.5167, 70.4944
67.5056, 72.4944, 69.5056, 66
71.5056, 74.9889, 86.0111, 67.9778
62.5167, 70.4833, 79.0111, 97.4944
65.5056, 117.506, 86.9889, 64
91.0111, 98.5056, 95.9889, 84.0111
98.9889, 88.4833, 85, 91.5167
85.5056, 68.9889, 112.494, 109.022
126.483, 137.494, 136.517, 119.494
172, 113.483, 139.517, 140.483
154, 148.022, 154.989, 183.011
145.989, 202.494, 182.011, 161.989
195, 184.506, 222.989, 177.022
182.483, 235, 187.989, 236.517
200.506, 217.483, 231.506, 197.978
266.011, 221, 265.011, 235.472
222.55, 217.483, 262, 251.483
247, 244.989, 222.011, 237.494
215.506, 248.022, 262.989, 265.517
258.967, 289.022, 310.494, 299.967
256.033, 315.483, 336.989, 327
321, 320.022, 362, 336.506
300.978, 337.539, 366.967, 366.494
370.494, 380.022, 322.989, 385
380.022, 349.461, 323.528, 337.506
350.472, 333.033, 335.461, 334.022
326.022, 334.472, 322.011, 330.967
333.022, 323.989, 324.506, 300.506
287, 283.506, 282, 328.989
348.528, 308.506, 373.461, 358.989
365.539, 357.506, 426.967, 407.506
429.472, 454.55, 468.494, 500.461
498.461, 559.55, 598.494, 622.011
699.978, 618.517, 613.45, 741.033
758.517, 763.483, 751.989, 864.956
897.561, 906.978, 882.011, 904.922
999.539, 949.067, 895.956, 1013.52
1006, 1035.48, 1031.98, 991.528
969.033, 1064.45, 1055.99, 1040.03
1059.97, 1022.51, 1045.45, 1185.57
1054.47, 1068.49, 1056.01, 1084.52
1056.99, 1104.46, 1106.06, 1084.51
1121.51, 1106.99, 1090.43, 1217.54
1204.49, 1225.49, 1263.53, 1331.94
1302.56, 1431.97, 1540.47, 1550.49
1608.48, 1682, 1711.04, 1810.92
1954.98, 1970, 2081.08, 2242.45
2314.96, 2614.49, 2623.02, 2750.42
2934.47, 3121.45, 3143.49, 3410.98
3416.55, 3592.46, 3817.45, 4009.03
4188.47, 4252.52, 4299.99, 4507.51
4740.99, 4700.44, 4886.55, 4859.96
5173.45, 5291.02, 5258.49, 5399.91
5599.03, 5546.92, 5602.63, 5351.45
5516.53, 5612.01, 5503.49, 5363.41
5286.63, 5527.83, 5387.74, 5295.43
5238.98, 5192.96, 5190.48, 5004.47
4871.71, 4712.26, 4514.18, 4460.03
4329.04, 4172, 4007.51, 3814.55
3722.93, 3693.56, 3488.96, 3355.13
3227.92, 3143.44, 3062.12, 2821.97
2835.51, 2679.47, 2495.64, 2476.78
2423.62, 2268.57, 2155.54, 2148.02
2024, 2035, 1835.97, 1928.02
1671.57, 1718.47, 1666, 1634.45
1570.56, 1406.45, 1434.51, 1327.61
1281.42, 1233.49, 1197, 1084.57
1072.99, 1043, 984.989, 1039.53
894.528, 872.967, 831.506, 812.506
775.461, 688.572, 704.483, 650.506
598.483, 587.067, 562.989, 526.483
503.528, 482.483, 442.978, 456.494
402.539, 362, 376.956, 572.033
330.494, 368.989, 348.011, 331.033
335.461, 297.506, 286.033, 343.472
357.978, 314.539, 318.494, 310.494
279.989, 306.528, 322.944, 324.033
343.011, 366.978, 363, 378.011
406.967, 419.528, 428.011, 468.472
479.539, 586.461, 553.989, 589.506
600, 693.494, 633.978, 696.528
735.528, 803.45, 855.517, 822.011
860.944, 909.517, 857.494, 922.483
968.033, 956.483, 988.528, 1022.93
1046.07, 1196.46, 986.528, 976.45
1016.59, 971.933, 1027.99, 1030.52
982.483, 976.506, 941.506, 897.011
934.483, 931, 918.011, 882.033
857.978, 858.55, 849.944, 910.461
877.517, 865.506, 911.517, 891.539
937.461, 950.011, 1031.97, 1067.01
1016.98, 1022.47, 1070.54, 1226.51
1246.98, 1387.51, 1417.94, 1490.55
1666.93, 1761.98, 1872.54, 2121.94
2282.52, 2478.39, 2740.49, 3105.58
3444.32, 3984.56, 4602.37, 5277.35
6374.01, 7446.21, 8721.33, 10576.3
12785.1, 15927.2, 19453.1, 24170.6
30331.1, 37651.3, 46347.7, 56176.3
68326.2, 83333.2, 100864, 122029
156664, 204489, 246972, 281203
313333, 348966, 392140, 442962
504857, 609205, 968736, 2774365.8
3312740, 3748480.3, 3871958.5, 1976400.4
1145459.4, 611733, 319601, 186702
109430, 62103.9, 43332.2, 31991.8
24470.8, 18860.6, 14793.3, 11826.5
9535.65, 7647.12, 6267.59, 5460.08
4437.17, 3861.52, 3351.19, 2895.46
2617.43, 2329.11, 2036.47, 1869.08
1734.02, 1525.91, 1467.62, 1310.53
1205.99, 1149.52, 1103.48, 930.022
836.011, 856.539, 786.439, 729.022
683.528, 622.517, 578.483, 588.989
502.517, 491.978, 434.033, 390.967
415.539, 404.978, 406, 375.539
354.494, 316.989, 316.989, 347.528
370.967, 311.517, 297.011, 335.483
289, 301.989, 339.011, 273.022
259.978, 301.011, 215.978, 298.011
284.011, 248.011, 232.967, 276.011
278.011, 222, 183.483, 220.539
221.978, 177.528, 173.494, 165.483
189.011, 166.494, 167, 155.494
141.506, 136.483, 150.506, 129.528
159.978, 157.494, 113.528, 125.989
169, 139.978, 140.528, 154
136.494, 152.494, 120.989, 142.517
124.978, 154.022, 133.978, 128.517
139.506, 126, 132, 140.483
126.011, 126.011, 135.494, 102.506
118.978, 97.0111, 133.011, 123.483
122.022, 96.4944, 84.4944, 108.506
111.989, 102.506, 94.0111, 62.4833
77.5167, 99.4944, 60, 100.494
72, 60.4944, 58.5056, 87.5056
58.5056, 55.4944, 41, 86.4944
65.4944, 94.0111, 71.5056, 43.9889
55.0111, 55.4833, 67.5056, 67.5056
83.9889, 66.5167, 35.9889, 77.5056
49.4944, 64.5056, 56.5056, 40
60, 38.9889, 36.5056, 82.5056
47.4944, 53.5056, 47.9889, 42
35.5056, 51, 44.4944, 41.5056
42.9889, 25.5167, 84, 40
30, 48, 37, 47.4944
42, 27.4944, 44.0111, 36.4944
43.4944, 36.0111, 37, 24
35, 20, 47, 41.4833
26.0111, 40.4944, 28.0111, 38
32.4944, 44.9889, 42.5167, 35
34.9889, 45, 34.0111, 29.4833
36.5167, 28.4833, 38, 32.5167
25.9889, 27.5056, 38, 18.4944
36.0111, 27, 31.9889, 28.5056
26, 28.5056, 18, 31
35, 29, 23, 37
26, 29.9889, 28.5056, 39.5056
36, 30.4833, 41.5167, 28
29, 19, 28.4944, 37.5056
40, 20, 22.4944, 39.5056
15, 28.9889, 30.5056, 24.5056
40.4944, 29.5056, 28, 20
24.4944, 17.5056, 34.4944, 23.4944
24, 17.0111, 20, 42
21, 9, 30.4944, 20.5056
19, 27.4944, 35, 45.5056
22.9889, 35.0111, 17, 15
60, 15, 38, 29.4944
28.5056, 29, 18, 26.4944
25.5056, 18, 10.9889, 24.0111
19, 72, 23, 36
25, 22, 28, 22
19.9889, 4.01111, 38, 32.4944
31, 39.5056, 22, 30
11, 22, 24, 20
26, 31.4944, 25.5056, 20
22, 22.4944, 22.5056, 12
25, 20, 28, 31.4944
25, 27.5056, 34, 29
21.4944, 38.5056, 15.9889, 21.0111
24, 9, 61, 22
13.4944, 25, 20.4944, 18
30.5056, 18.5056, 72, 40.9778
26.0222, 17.4944, 24.4944, 25.0111
30, 14, 38.9889, 29.0111
20, 24.4944, 11.5056, 25
8, 21, 17, 28.4833
33.5167, 19, 29, 24
37, 26, 22, 19
17, 23, 22, 11
35, 23.4944, 15.5056, 16.4944
9.50555, 20.4944, 21.5056, 16.9889
26.0111, 16, 12.4944, 23
14.5056, 22.4944, 32.4944, 24.0111
46, 29, 18.9889, 26.0111
32.9889, 20.5056, 29.5056, 13
23.9889, 30.5056, 9.50555, 24
33, 20, 18.4944, 20
18.5056, 14, 20, 16
20, 27, 10, 27
11.4944, 21.5056, 16.4944, 23.5056
17
*END

*EOF