File: XRD:XRR/SCO/22102_S(CT)OL/22102_S(CT)OL_XRD_notAnn_001.csv
#twotheta, yobs, ycal, bkg, diff
16.0,0.0,1.0,1.0,1.0
16.06,5.0,1.0,1.0,1.0
16.12,0.0,1.0,1.0,1.0
16.18,0.0,1.0,1.0,1.0
16.24,1.0,1.0,1.0,1.0
16.3,0.0,1.0,1.0,1.0
16.36,0.0,1.0,1.0,1.0
16.42,4.0,1.0,1.0,1.0
16.48,0.0,1.0,1.0,1.0
16.54,0.0,1.0,1.0,1.0
16.6,4.0,1.0,1.0,1.0
16.66,0.0,1.0,1.0,1.0
16.72,2.0,1.0,1.0,1.0
16.78,3.0,1.0,1.0,1.0
16.84,2.0,1.0,1.0,1.0
16.9,0.0,1.0,1.0,1.0
16.96,2.0,1.0,1.0,1.0
17.02,5.0,1.0,1.0,1.0
17.08,0.0,1.0,1.0,1.0
17.14,1.0,1.0,1.0,1.0
17.2,3.0,1.0,1.0,1.0
17.26,2.0,1.0,1.0,1.0
17.32,0.0,1.0,1.0,1.0
17.38,2.0,1.0,1.0,1.0
17.44,0.0,1.0,1.0,1.0
17.5,2.0,1.0,1.0,1.0
17.56,5.5024,1.0,1.0,1.0
17.62,3.0,1.0,1.0,1.0
17.68,2.0,1.0,1.0,1.0
17.74,2.0,1.0,1.0,1.0
17.8,4.0,1.0,1.0,1.0
17.86,4.0,1.0,1.0,1.0
17.92,2.0,1.0,1.0,1.0
17.98,0.0,1.0,1.0,1.0
18.04,3.0,1.0,1.0,1.0
18.1,0.0,1.0,1.0,1.0
18.16,0.0,1.0,1.0,1.0
18.22,0.0,1.0,1.0,1.0
18.28,3.0,1.0,1.0,1.0
18.34,0.0,1.0,1.0,1.0
18.4,0.0,1.0,1.0,1.0
18.46,1.0,1.0,1.0,1.0
18.52,0.0,1.0,1.0,1.0
18.58,2.0,1.0,1.0,1.0
18.64,0.0,1.0,1.0,1.0
18.7,0.0,1.0,1.0,1.0
18.76,4.0,1.0,1.0,1.0
18.82,4.0,1.0,1.0,1.0
18.88,2.0,1.0,1.0,1.0
18.94,0.0,1.0,1.0,1.0
19.0,2.0,1.0,1.0,1.0
19.06,0.0,1.0,1.0,1.0
19.12,0.0,1.0,1.0,1.0
19.18,2.0,1.0,1.0,1.0
19.24,0.0,1.0,1.0,1.0
19.3,2.5008,1.0,1.0,1.0
19.36,2.0,1.0,1.0,1.0
19.42,2.0,1.0,1.0,1.0
19.48,5.0,1.0,1.0,1.0
19.54,0.0,1.0,1.0,1.0
19.6,2.0,1.0,1.0,1.0
19.66,0.0,1.0,1.0,1.0
19.72,3.0,1.0,1.0,1.0
19.78,1.4992,1.0,1.0,1.0
19.84,4.0,1.0,1.0,1.0
19.9,0.0,1.0,1.0,1.0
19.96,0.0,1.0,1.0,1.0
20.02,5.0,1.0,1.0,1.0
20.08,7.4992,1.0,1.0,1.0
20.14,3.0,1.0,1.0,1.0
20.2,0.0,1.0,1.0,1.0
20.26,1.5008,1.0,1.0,1.0
20.32,3.0,1.0,1.0,1.0
20.38,4.0,1.0,1.0,1.0
20.44,0.0,1.0,1.0,1.0
20.5,0.4992,1.0,1.0,1.0
20.56,3.0,1.0,1.0,1.0
20.62,1.4992,1.0,1.0,1.0
20.68,2.0,1.0,1.0,1.0
20.74,0.0,1.0,1.0,1.0
20.8,0.0,1.0,1.0,1.0
20.86,5.0,1.0,1.0,1.0
20.92,0.0,1.0,1.0,1.0
20.98,0.0,1.0,1.0,1.0
21.04,4.0,1.0,1.0,1.0
21.1,7.0,1.0,1.0,1.0
21.16,3.0,1.0,1.0,1.0
21.22,0.0,1.0,1.0,1.0
21.28,0.0,1.0,1.0,1.0
21.34,2.0,1.0,1.0,1.0
21.4,2.4992,1.0,1.0,1.0
21.46,4.0,1.0,1.0,1.0
21.52,8.0,1.0,1.0,1.0
21.58,9.0016,1.0,1.0,1.0
21.64,8.0,1.0,1.0,1.0
21.7,6.0,1.0,1.0,1.0
21.76,5.0,1.0,1.0,1.0
21.82,4.0,1.0,1.0,1.0
21.88,3.0,1.0,1.0,1.0
21.94,8.5008,1.0,1.0,1.0
22.0,8.4992,1.0,1.0,1.0
22.06,3.0,1.0,1.0,1.0
22.12,16.0,1.0,1.0,1.0
22.18,24.0,1.0,1.0,1.0
22.24,5.0,1.0,1.0,1.0
22.3,15.5008,1.0,1.0,1.0
22.36,33.0016,1.0,1.0,1.0
22.42,70.0,1.0,1.0,1.0
22.48,151.4976,1.0,1.0,1.0
22.54,187.0016,1.0,1.0,1.0
22.6,259.9984,1.0,1.0,1.0
22.66,335.5008,1.0,1.0,1.0
22.72,286.9969,1.0,1.0,1.0
22.78,277.9984,1.0,1.0,1.0
22.84,166.5039,1.0,1.0,1.0
22.9,145.4976,1.0,1.0,1.0
22.96,159.0,1.0,1.0,1.0
23.02,165.9984,1.0,1.0,1.0
23.08,271.0,1.0,1.0,1.0
23.14,399.9937,1.0,1.0,1.0
23.2,519.5039,1.0,1.0,1.0
23.26,743.9984,1.0,1.0,1.0
23.32,1948.99,1.0,1.0,1.0
23.38,13858.9,1.0,1.0,1.0
23.44,1911988.125,1.0,1.0,1.0
23.5,1640876.875,1.0,1.0,1.0
23.56,21815.7,1.0,1.0,1.0
23.62,2886.51,1.0,1.0,1.0
23.68,945.9968,1.0,1.0,1.0
23.74,432.9953,1.0,1.0,1.0
23.8,260.9984,1.0,1.0,1.0
23.86,161.5024,1.0,1.0,1.0
23.92,100.9984,1.0,1.0,1.0
23.98,87.4992,1.0,1.0,1.0
24.04,68.0,1.0,1.0,1.0
24.1,69.0,1.0,1.0,1.0
24.16,49.0,1.0,1.0,1.0
24.22,7.0,1.0,1.0,1.0
24.28,32.5008,1.0,1.0,1.0
24.34,13.9984,1.0,1.0,1.0
24.4,24.9984,1.0,1.0,1.0
24.46,16.0,1.0,1.0,1.0
24.52,23.0,1.0,1.0,1.0
24.58,6.0,1.0,1.0,1.0
24.64,5.4992,1.0,1.0,1.0
24.7,7.0,1.0,1.0,1.0
24.76,2.0,1.0,1.0,1.0
24.82,5.0,1.0,1.0,1.0
24.88,2.0,1.0,1.0,1.0
24.94,11.0,1.0,1.0,1.0
25.0,6.0,1.0,1.0,1.0
25.06,5.4992,1.0,1.0,1.0
25.12,0.0,1.0,1.0,1.0
25.18,6.0,1.0,1.0,1.0
25.24,21.0,1.0,1.0,1.0
25.3,7.0,1.0,1.0,1.0
25.36,0.0,1.0,1.0,1.0
25.42,2.0,1.0,1.0,1.0
25.48,5.0,1.0,1.0,1.0
25.54,2.0,1.0,1.0,1.0
25.6,3.5008,1.0,1.0,1.0
25.66,2.0,1.0,1.0,1.0
25.72,2.0,1.0,1.0,1.0
25.78,0.0,1.0,1.0,1.0
25.84,2.0,1.0,1.0,1.0
25.9,0.0,1.0,1.0,1.0
25.96,12.0016,1.0,1.0,1.0
26.02,2.0,1.0,1.0,1.0
26.08,3.0,1.0,1.0,1.0
26.14,0.0,1.0,1.0,1.0
26.2,6.4992,1.0,1.0,1.0
26.26,2.0,1.0,1.0,1.0
26.32,0.0,1.0,1.0,1.0
26.38,0.0,1.0,1.0,1.0
26.44,1.0,1.0,1.0,1.0
26.5,0.0,1.0,1.0,1.0
26.56,0.0,1.0,1.0,1.0
26.62,2.0,1.0,1.0,1.0
26.68,8.0,1.0,1.0,1.0
26.74,0.0,1.0,1.0,1.0
26.8,0.0,1.0,1.0,1.0
26.86,2.0,1.0,1.0,1.0
26.92,0.5008,1.0,1.0,1.0
26.98,2.0,1.0,1.0,1.0
27.04,0.0,1.0,1.0,1.0
27.1,2.0,1.0,1.0,1.0
27.16,7.0,1.0,1.0,1.0
27.22,6.0,1.0,1.0,1.0
27.28,6.0,1.0,1.0,1.0
27.34,8.0,1.0,1.0,1.0
27.4,6.0,1.0,1.0,1.0
27.46,3.0,1.0,1.0,1.0
27.52,3.0,1.0,1.0,1.0
27.58,1.0,1.0,1.0,1.0
27.64,2.0,1.0,1.0,1.0
27.7,0.0,1.0,1.0,1.0
27.76,5.0,1.0,1.0,1.0
27.82,0.0,1.0,1.0,1.0
27.88,3.0,1.0,1.0,1.0
27.94,0.0,1.0,1.0,1.0
28.0,0.0,1.0,1.0,1.0
28.06,0.0,1.0,1.0,1.0
28.12,0.0,1.0,1.0,1.0
28.18,2.0,1.0,1.0,1.0
28.24,2.0,1.0,1.0,1.0
28.3,4.5008,1.0,1.0,1.0
28.36,2.0,1.0,1.0,1.0
28.42,0.0,1.0,1.0,1.0
28.48,0.0,1.0,1.0,1.0
28.54,0.0,1.0,1.0,1.0
28.6,2.0,1.0,1.0,1.0
28.66,2.4992,1.0,1.0,1.0
28.72,0.0,1.0,1.0,1.0
28.78,2.0,1.0,1.0,1.0
28.84,5.0,1.0,1.0,1.0
28.9,0.0,1.0,1.0,1.0
28.96,0.0,1.0,1.0,1.0
29.02,2.0,1.0,1.0,1.0
29.08,0.0,1.0,1.0,1.0
29.14,0.0,1.0,1.0,1.0
29.2,2.0,1.0,1.0,1.0
29.26,0.0,1.0,1.0,1.0
29.32,6.0,1.0,1.0,1.0
29.38,0.5008,1.0,1.0,1.0
29.44,5.0,1.0,1.0,1.0
29.5,2.0,1.0,1.0,1.0
29.56,1.4976,1.0,1.0,1.0
29.62,4.0,1.0,1.0,1.0
29.68,5.0,1.0,1.0,1.0
29.74,0.0,1.0,1.0,1.0
29.8,4.0,1.0,1.0,1.0
29.86,0.4992,1.0,1.0,1.0
29.92,0.0,1.0,1.0,1.0
29.98,2.0,1.0,1.0,1.0
30.04,4.0,1.0,1.0,1.0
30.1,0.0,1.0,1.0,1.0
30.16,0.0,1.0,1.0,1.0
30.22,0.0,1.0,1.0,1.0
30.28,0.0,1.0,1.0,1.0
30.34,0.0,1.0,1.0,1.0
30.4,0.0,1.0,1.0,1.0
30.46,0.0,1.0,1.0,1.0
30.52,0.0,1.0,1.0,1.0
30.58,0.0,1.0,1.0,1.0
30.64,0.0,1.0,1.0,1.0
30.7,0.0,1.0,1.0,1.0
30.76,0.0,1.0,1.0,1.0
30.82,4.0,1.0,1.0,1.0
30.88,0.0,1.0,1.0,1.0
30.94,0.0,1.0,1.0,1.0
31.0,0.0,1.0,1.0,1.0