File: XRD:XRR/SCO/22102_S(CT)OL/22102_S(CT)OL_002_XRD_Ann.csv
#twotheta, yobs, ycal, bkg, diff
42.0,11.0,1.0,1.0,1.0
42.04,14.5056,1.0,1.0,1.0
42.08,10.0,1.0,1.0,1.0
42.12,4.0,1.0,1.0,1.0
42.16,3.0,1.0,1.0,1.0
42.2,7.4944,1.0,1.0,1.0
42.24,19.0,1.0,1.0,1.0
42.28,6.0,1.0,1.0,1.0
42.32,7.0,1.0,1.0,1.0
42.36,8.0,1.0,1.0,1.0
42.4,3.0,1.0,1.0,1.0
42.44,8.4944,1.0,1.0,1.0
42.48,4.5056,1.0,1.0,1.0
42.52,8.5056,1.0,1.0,1.0
42.56,16.0,1.0,1.0,1.0
42.6,11.4944,1.0,1.0,1.0
42.64,2.0,1.0,1.0,1.0
42.68,9.0,1.0,1.0,1.0
42.72,8.0,1.0,1.0,1.0
42.76,13.4944,1.0,1.0,1.0
42.8,11.0,1.0,1.0,1.0
42.84,12.0,1.0,1.0,1.0
42.88,4.0,1.0,1.0,1.0
42.92,15.0,1.0,1.0,1.0
42.96,12.0,1.0,1.0,1.0
43.0,11.0,1.0,1.0,1.0
43.04,11.5056,1.0,1.0,1.0
43.08,17.0,1.0,1.0,1.0
43.12,9.0,1.0,1.0,1.0
43.16,14.0,1.0,1.0,1.0
43.2,11.4944,1.0,1.0,1.0
43.24,20.4944,1.0,1.0,1.0
43.28,8.0,1.0,1.0,1.0
43.32,13.0,1.0,1.0,1.0
43.36,10.0,1.0,1.0,1.0
43.4,16.0111,1.0,1.0,1.0
43.44,18.0,1.0,1.0,1.0
43.48,2.0,1.0,1.0,1.0
43.52,13.0,1.0,1.0,1.0
43.56,20.4944,1.0,1.0,1.0
43.6,15.0111,1.0,1.0,1.0
43.64,21.4944,1.0,1.0,1.0
43.68,18.4944,1.0,1.0,1.0
43.72,19.9889,1.0,1.0,1.0
43.76,16.5056,1.0,1.0,1.0
43.8,17.0,1.0,1.0,1.0
43.84,20.4833,1.0,1.0,1.0
43.88,33.0,1.0,1.0,1.0
43.92,29.0,1.0,1.0,1.0
43.96,30.4944,1.0,1.0,1.0
44.0,25.4944,1.0,1.0,1.0
44.04,30.0,1.0,1.0,1.0
44.08,44.5167,1.0,1.0,1.0
44.12,22.0,1.0,1.0,1.0
44.16,49.5056,1.0,1.0,1.0
44.2,56.0111,1.0,1.0,1.0
44.24,35.0111,1.0,1.0,1.0
44.28,51.0,1.0,1.0,1.0
44.32,43.0111,1.0,1.0,1.0
44.36,60.0,1.0,1.0,1.0
44.4,62.5056,1.0,1.0,1.0
44.44,77.0,1.0,1.0,1.0
44.48,115.4944,1.0,1.0,1.0
44.52,87.0,1.0,1.0,1.0
44.56,70.9889,1.0,1.0,1.0
44.6,119.5167,1.0,1.0,1.0
44.64,125.4944,1.0,1.0,1.0
44.68,111.4944,1.0,1.0,1.0
44.72,134.0111,1.0,1.0,1.0
44.76,149.0,1.0,1.0,1.0
44.8,145.5278,1.0,1.0,1.0
44.84,200.0111,1.0,1.0,1.0
44.88,159.0,1.0,1.0,1.0
44.92,218.4833,1.0,1.0,1.0
44.96,256.0,1.0,1.0,1.0
45.0,215.0,1.0,1.0,1.0
45.04,222.0111,1.0,1.0,1.0
45.08,260.4833,1.0,1.0,1.0
45.12,282.0111,1.0,1.0,1.0
45.16,288.0,1.0,1.0,1.0
45.2,250.0,1.0,1.0,1.0
45.24,267.4944,1.0,1.0,1.0
45.28,230.0333,1.0,1.0,1.0
45.32,199.9778,1.0,1.0,1.0
45.36,236.4833,1.0,1.0,1.0
45.4,258.0222,1.0,1.0,1.0
45.44,241.9889,1.0,1.0,1.0
45.48,333.9778,1.0,1.0,1.0
45.52,336.5167,1.0,1.0,1.0
45.56,373.4833,1.0,1.0,1.0
45.6,436.0111,1.0,1.0,1.0
45.64,455.4833,1.0,1.0,1.0
45.68,543.9889,1.0,1.0,1.0
45.72,540.4722,1.0,1.0,1.0
45.76,572.4833,1.0,1.0,1.0
45.8,586.0,1.0,1.0,1.0
45.84,657.55,1.0,1.0,1.0
45.88,691.0222,1.0,1.0,1.0
45.92,676.4722,1.0,1.0,1.0
45.96,721.0,1.0,1.0,1.0
46.0,809.0,1.0,1.0,1.0
46.04,958.5278,1.0,1.0,1.0
46.08,1118.96,1.0,1.0,1.0
46.12,1134.52,1.0,1.0,1.0
46.16,1309.51,1.0,1.0,1.0
46.2,1435.04,1.0,1.0,1.0
46.24,1560.03,1.0,1.0,1.0
46.28,1543.46,1.0,1.0,1.0
46.32,1682.45,1.0,1.0,1.0
46.36,1620.04,1.0,1.0,1.0
46.4,1577.49,1.0,1.0,1.0
46.44,1452.63,1.0,1.0,1.0
46.48,1371.01,1.0,1.0,1.0
46.52,1373.49,1.0,1.0,1.0
46.56,1161.53,1.0,1.0,1.0
46.6,1063.52,1.0,1.0,1.0
46.64,929.9889,1.0,1.0,1.0
46.68,806.9778,1.0,1.0,1.0
46.72,709.9889,1.0,1.0,1.0
46.76,608.5389,1.0,1.0,1.0
46.8,495.5611,1.0,1.0,1.0
46.84,424.0555,1.0,1.0,1.0
46.88,381.4833,1.0,1.0,1.0
46.92,341.4944,1.0,1.0,1.0
46.96,281.0,1.0,1.0,1.0
47.0,287.9889,1.0,1.0,1.0
47.04,285.5167,1.0,1.0,1.0
47.08,269.9889,1.0,1.0,1.0
47.12,253.9778,1.0,1.0,1.0
47.16,232.0,1.0,1.0,1.0
47.2,256.5056,1.0,1.0,1.0
47.24,230.5167,1.0,1.0,1.0
47.28,309.9889,1.0,1.0,1.0
47.32,379.4944,1.0,1.0,1.0
47.36,436.9778,1.0,1.0,1.0
47.4,538.4722,1.0,1.0,1.0
47.44,585.9889,1.0,1.0,1.0
47.48,740.4833,1.0,1.0,1.0
47.52,720.5278,1.0,1.0,1.0
47.56,784.0667,1.0,1.0,1.0
47.6,962.5056,1.0,1.0,1.0
47.64,1135.97,1.0,1.0,1.0
47.68,1533.94,1.0,1.0,1.0
47.72,2228.99,1.0,1.0,1.0
47.76,3834.84,1.0,1.0,1.0
47.8,8657.56,1.0,1.0,1.0
47.84,24124.4,1.0,1.0,1.0
47.88,77839,1.0,1.0,1.0
47.92,157120,1.0,1.0,1.0
47.96,163294,1.0,1.0,1.0
48.0,144103,1.0,1.0,1.0
48.04,124761,1.0,1.0,1.0
48.08,37653.8,1.0,1.0,1.0
48.12,16590.9,1.0,1.0,1.0
48.16,6775.65,1.0,1.0,1.0
48.2,2970.53,1.0,1.0,1.0
48.24,1497.02,1.0,1.0,1.0
48.28,885.5278,1.0,1.0,1.0
48.32,596.0444,1.0,1.0,1.0
48.36,473.5056,1.0,1.0,1.0
48.4,388.4944,1.0,1.0,1.0
48.44,412.0111,1.0,1.0,1.0
48.48,354.9778,1.0,1.0,1.0
48.52,346.0222,1.0,1.0,1.0
48.56,311.0111,1.0,1.0,1.0
48.6,260.5056,1.0,1.0,1.0
48.64,232.5278,1.0,1.0,1.0
48.68,140.4833,1.0,1.0,1.0
48.72,128.9889,1.0,1.0,1.0
48.76,118.9889,1.0,1.0,1.0
48.8,117.9778,1.0,1.0,1.0
48.84,103.9889,1.0,1.0,1.0
48.88,98.4833,1.0,1.0,1.0
48.92,96.0,1.0,1.0,1.0
48.96,65.0,1.0,1.0,1.0
49.0,74.0111,1.0,1.0,1.0
49.04,66.9889,1.0,1.0,1.0
49.08,61.0,1.0,1.0,1.0
49.12,74.9889,1.0,1.0,1.0
49.16,40.4833,1.0,1.0,1.0
49.2,53.0,1.0,1.0,1.0
49.24,57.5167,1.0,1.0,1.0
49.28,38.0,1.0,1.0,1.0
49.32,30.0,1.0,1.0,1.0
49.36,31.0,1.0,1.0,1.0
49.4,37.0222,1.0,1.0,1.0
49.44,28.0,1.0,1.0,1.0
49.48,24.0,1.0,1.0,1.0
49.52,24.9889,1.0,1.0,1.0
49.56,30.0,1.0,1.0,1.0
49.6,33.0,1.0,1.0,1.0
49.64,10.0,1.0,1.0,1.0
49.68,28.0,1.0,1.0,1.0
49.72,30.5056,1.0,1.0,1.0
49.76,29.4944,1.0,1.0,1.0
49.8,21.0,1.0,1.0,1.0
49.84,27.0,1.0,1.0,1.0
49.88,19.0,1.0,1.0,1.0
49.92,19.5056,1.0,1.0,1.0
49.96,18.0,1.0,1.0,1.0
50.0,14.0,1.0,1.0,1.0
50.04,8.5056,1.0,1.0,1.0
50.08,9.9889,1.0,1.0,1.0
50.12,13.0,1.0,1.0,1.0
50.16,9.0,1.0,1.0,1.0
50.2,6.0,1.0,1.0,1.0
50.24,10.0111,1.0,1.0,1.0
50.28,14.0,1.0,1.0,1.0
50.32,7.4944,1.0,1.0,1.0
50.36,4.0,1.0,1.0,1.0
50.4,10.9889,1.0,1.0,1.0
50.44,6.0,1.0,1.0,1.0
50.48,14.0,1.0,1.0,1.0
50.52,3.0,1.0,1.0,1.0
50.56,17.0,1.0,1.0,1.0
50.6,11.0111,1.0,1.0,1.0
50.64,2.0,1.0,1.0,1.0
50.68,18.5056,1.0,1.0,1.0
50.72,7.0,1.0,1.0,1.0
50.76,13.0,1.0,1.0,1.0
50.8,18.0,1.0,1.0,1.0
50.84,4.0,1.0,1.0,1.0
50.88,18.0,1.0,1.0,1.0
50.92,9.0,1.0,1.0,1.0
50.96,9.0,1.0,1.0,1.0
51.0,19.0,1.0,1.0,1.0
51.04,6.0,1.0,1.0,1.0
51.08,4.0,1.0,1.0,1.0
51.12,9.5056,1.0,1.0,1.0
51.16,7.0,1.0,1.0,1.0
51.2,0.0,1.0,1.0,1.0
51.24,10.0,1.0,1.0,1.0
51.28,3.0,1.0,1.0,1.0
51.32,9.5056,1.0,1.0,1.0
51.36,9.4944,1.0,1.0,1.0
51.4,9.0,1.0,1.0,1.0
51.44,7.0,1.0,1.0,1.0
51.48,10.0,1.0,1.0,1.0
51.52,0.0,1.0,1.0,1.0
51.56,13.0,1.0,1.0,1.0
51.6,8.0,1.0,1.0,1.0
51.64,6.5056,1.0,1.0,1.0
51.68,4.0,1.0,1.0,1.0
51.72,4.0,1.0,1.0,1.0
51.76,5.0,1.0,1.0,1.0
51.8,9.0,1.0,1.0,1.0
51.84,58.0,1.0,1.0,1.0
51.88,7.0,1.0,1.0,1.0
51.92,16.0,1.0,1.0,1.0
51.96,7.0,1.0,1.0,1.0
52.0,4.0,1.0,1.0,1.0