File: XRD:XRR/SCO/22102_S(CT)OL/22102_S(CT)OL_002_XRD_Ann_2-Theta_Omega.asc
*TYPE		=  Raw
*CLASS		=  ASCII CLASS
*SAMPLE		=
*COMMENT	=
*FNAME		=  22102_S(CT)OL_002_XRD_Ann_2-Theta_Omega.asc
*DATE		=  15-Jul-22 21:44

*GROUP_COUNT	=  1
*GONIO		=  SmartLab(In-plane), 0.000000
*ATTACHMENT	=  Z-Phi Stage
*ASC		=  0, 0, 0.000000, 0.000000
*I_MONOCHRO	=  Ge(220)x2, 0.000000
*FILTER		=  None
*C_MONOCHRO	=  None, 0.000000
*SLIT_NAME	=  0, Incident slit
*SLIT_NAME	=  1, Receiving slit # 1
*SLIT_NAME	=  2, Receiving slit # 2
*COUNTER	=  D/teX Ultra 250, 0
*POS_FORMAT	=  0
*SCAN_AXIS	=  2Theta/Omega
*MEAS_MODE	=  Continuous Scanning
*TARGET		=  29
*XRAY_CHAR	=  K-ALPHA1
*WAVE_LENGTH1	=  1.54059
*WAVE_LENGTH2	=  1.54441
*THICKNESS	=  0, 0.000000
*MU		=  0, 0.000000
*SCAN_MODE	=  2Theta/Omega
*SPEED_DIM	=  sec./step
*XUNIT		=  deg.
*YUNIT		=  counts
*SCALE_MODE	=  1
*REP_COUNT	=  0
*SE_COUNT	=  0
*STD_MATERIAL	=  Unknown, Unknown, 0.000000, 0.000000, 0.000000, 0.000000, 0.000000, 0.000000
*LATT_CONS	=  0, Unknown, Unknown, 0.000000, 0.000000, 0.000000, 0.000000, 0.000000, 0.000000
*SEC_COUNT	=  1
*TSPEC_SIZE	=  0
*EXTRA_SIZE	=  0
*MEMO		=

*BEGIN
*GROUP		=  0
*START		=  42
*STOP		=  52
*STEP		=  0.01
*OFFSET		=  -0.104500
*SPEED		=  23.9588
*SLIT_SPEC	=  0, 0.400mm, 0.4, 0.000000
*SLIT_SPEC	=  1, 0.400mm, 0.4, 0.000000
*SLIT_SPEC	=  2, 0.400mm, 0.4, 0.000000
*KV		=  40
*MA		=  30
*LOW		=  0.000000
*HIGH		=  0.000000
*CTEMPER	=  0, 0.000000
*CTEMPER	=  1, 0.000000
*CTEMPER	=  2, 0.000000
*PAREX		=  0, 0.000000
*PAREX		=  1, 0.000000
*PAREX		=  2, 0.000000
*PAREX		=  3, 0.000000
*PAREX		=  4, 0.000000
*PAREX		=  5, 0.000000
*PAREX		=  6, 0.000000
*PAREX		=  7, 0.000000
*PAREX		=  8, 0.000000
*PAREX		=  9, 0.000000
*PAREX		=  10, 0.000000
*PAREX		=  11, 0.000000
*PAREX		=  12, 0.000000
*PAREX		=  13, 0.000000
*PAREX		=  14, 0.000000
*PAREX		=  15, 0.000000
*FULL_SCALE	=  8985.43
*INDEX		=  0, 0, 0
*COUNT		=  1001
11, 5, 13, 6.49445
14.5056, 8, 4.98889, 11.0111
10, 10, 8, 2
4, 4.49445, 16, 3.50555
3, 7, 9, 6
7.49445, 10.5056, 2, 10
19, 12, 8, 12
6, 7, 4, 15
7, 15, 7, 1
8, 21, 14.9889, 8.01111
3, 4, 2, 40
8.49445, 4.50555, 4, 28.4944
4.50555, 2, 10, 5.49445
8.50555, 3, 9, 7
16, 13, 10, 15
11.4944, 7.50555, 13, 7
2, 8, 17, 7
9, 8, 13, 5
8, 20, 12, 5
13.4944, 3.50555, 13, 12
11, 13, 10, 9
12, 14, 0.000000, 2
4, 4, 5, 13
15, 8, 8.49445, 18.5056
12, 15, 16.4944, 3
11, 14.5056, 7, 5.98889
11.5056, 13.5056, 8, 19
17, 14, 19, 10
9, 15, 6, 9
14, 13, 12, 11
11.4944, 18.5056, 19, 12
20.4944, 14.5056, 15, 27
8, 15.4944, 14, 8.50555
13, 12, 14, 7
10, 11, 9, 14.9889
16.0111, 13, 17.9889, 22.0111
18, 20.4944, 20.5056, 9
2, 10.4944, 22.5056, 18
13, 16, 13.4944, 14.5056
20.4944, 18.5056, 31, 12.9889
15.0111, 21, 20, 17
21.4944, 19, 13.5056, 20
18.4944, 25, 21.5056, 31
19.9889, 19.5056, 20, 18
16.5056, 31, 27.4944, 44.5056
17, 31, 34.4944, 17.5056
20.4833, 27, 34.5167, 34.4944
33, 36.5056, 20, 22.4944
29, 29.5056, 27.4944, 27.5056
30.4944, 27.4944, 23.0111, 30
25.4944, 24.5056, 36, 32.4944
30, 50.4944, 28, 41.4944
44.5167, 29, 26, 23
22, 40.4944, 62.5056, 29.4944
49.5056, 35.9889, 47.0111, 45.9889
56.0111, 34.4944, 40, 36.9889
35.0111, 38.5056, 51.9889, 47.5056
51, 52.5056, 39.4944, 51.4944
43.0111, 60.4944, 40, 66.4944
60, 55.0111, 71.4944, 58.4944
62.5056, 66.5056, 62, 65.4944
77, 72.4944, 82.5056, 77.9889
115.494, 98.5167, 88, 86
87, 104, 108.989, 102.517
70.9889, 102, 93.4944, 110.494
119.517, 126.494, 92.4944, 123.506
125.494, 137.494, 91.5056, 132.506
111.494, 124.011, 131, 131.483
134.011, 139.989, 141.506, 128.494
149, 125.022, 168.989, 149.978
145.528, 187.989, 148.989, 202.506
200.011, 200.494, 196.483, 192.011
159, 213.517, 183.461, 226.022
218.483, 214.517, 217.494, 211.506
256, 238.011, 224.989, 270
215, 259.506, 265.494, 234.978
222.011, 242.494, 273.011, 277.506
260.483, 279.033, 288.461, 303.011
282.011, 267.494, 275.978, 300.517
288, 276.011, 242, 262.494
250, 241.517, 276.461, 266.022
267.494, 273, 276, 262.483
230.033, 275.483, 241.022, 231.483
199.978, 251.011, 256.506, 293.517
236.483, 251, 249.494, 258.011
258.022, 279.472, 268.022, 278.472
241.989, 260.517, 257.022, 289.978
333.978, 323.011, 327.011, 314
336.517, 386.989, 371.483, 348.528
373.483, 385.506, 405.483, 377.506
436.011, 430.45, 471.528, 442.011
455.483, 493.517, 465.978, 492.528
543.989, 525.967, 495.517, 524.506
540.472, 533.011, 573.506, 555.033
572.483, 545.978, 607.494, 593.022
586, 574, 596, 645.472
657.55, 657.472, 614.506, 669.967
691.022, 668.956, 671.044, 670.506
676.472, 749.528, 745.978, 725.506
721, 831.483, 789.022, 805.483
809, 794.506, 895.461, 918.494
958.528, 976.978, 910.011, 991.528
1118.96, 1085.01, 1126, 1151.01
1134.52, 1121.49, 1220.98, 1255.92
1309.51, 1262.56, 1349.98, 1343.98
1435.04, 1409.01, 1468.96, 1576.01
1560.03, 1534.46, 1552.99, 1606.51
1543.46, 1668.51, 1624.54, 1592.49
1682.45, 1720.57, 1694.94, 1661.01
1620.04, 1607.44, 1576.07, 1555.43
1577.49, 1552.55, 1568.52, 1574.91
1452.63, 1504.9, 1527.06, 1538.49
1371.01, 1351.98, 1438.01, 1404.01
1373.49, 1319.01, 1353.02, 1249.01
1161.53, 1231.94, 1154, 1144.51
1063.52, 1036.51, 980.933, 972.55
929.989, 958.044, 868, 881.472
806.978, 744.044, 777.539, 752.989
709.989, 625.033, 673.472, 648.483
608.539, 662, 608.989, 563.483
495.561, 480.933, 487.539, 442.461
424.056, 377.989, 427.494, 401.011
381.483, 339.989, 345.539, 344.494
341.494, 346.483, 317.528, 315
281, 287.989, 263.483, 283.022
287.989, 287, 244.011, 261.483
285.517, 232.989, 227.517, 260.506
269.989, 226.494, 230.506, 260
253.978, 243.528, 254, 233.494
232, 283.922, 269.089, 214.506
256.506, 240.956, 242.517, 275
230.517, 393.978, 295, 283.011
309.989, 324.494, 334.506, 352.989
379.494, 396, 434.967, 416.561
436.978, 501.989, 499.011, 526.494
538.472, 509.011, 612.011, 627.494
585.989, 665.506, 681.967, 694.022
740.483, 712.978, 762.067, 812.956
720.528, 826.011, 787.967, 861.956
784.067, 868.517, 836.922, 875.033
962.506, 993.989, 1030.99, 1087.52
1135.97, 1208.02, 1247.94, 1445.99
1533.94, 1679.59, 1712.89, 1988.04
2228.99, 2422.9, 2872.98, 3279.48
3834.84, 4790.88, 5803.43, 6963.13
8657.56, 10983.7, 13797.9, 18384.1
24124.4, 33148.4, 46568.2, 58630.7
77839, 101658, 126445, 145792
157120, 159788, 158631, 157269
163294, 172077, 168203, 156568
144103, 133995, 123962, 121142
124761, 119396, 78260.2, 49634.6
37653.8, 31082.8, 25344.1, 20492.3
16590.9, 13402.3, 10445.8, 8407.68
6775.65, 5525.03, 4466.16, 3680.72
2970.53, 2491.51, 2100.04, 1840.02
1497.02, 1315, 1047.57, 1015.47
885.528, 736.55, 680.506, 621.944
596.044, 555.494, 539.011, 489.978
473.506, 455.033, 456.472, 411.022
388.494, 402, 408.989, 402.989
412.011, 354.022, 339.472, 370.033
354.978, 353.011, 317.989, 315.989
346.022, 312.517, 293.483, 307
311.011, 256.506, 244.011, 220.483
260.506, 243.506, 214.472, 206.517
232.528, 198.978, 168.506, 171.506
140.483, 144.506, 159.989, 167.528
128.989, 134.011, 140.494, 121
118.989, 138.506, 134.506, 179.506
117.978, 108.506, 109, 101.517
103.989, 100.494, 107.506, 114.517
98.4833, 111, 88.5056, 92.5056
96, 89.5056, 96.4944, 93
65, 87, 72, 50.4944
74.0111, 80.9778, 43.0222, 69
66.9889, 82.0111, 61, 45.9889
61, 25.5056, 49, 41.5056
74.9889, 46.5056, 47, 54.5056
40.4833, 61.5167, 42, 46
53, 47.4944, 27.5056, 32.4833
57.5167, 32.4944, 40.5056, 45.4944
38, 32.5056, 51, 19.9889
30, 32.0111, 50, 41
31, 33, 50, 40.9778
37.0222, 33, 42.4944, 17.5056
28, 21, 31, 24
24, 43.4944, 35, 18.5056
24.9889, 41.0111, 26, 24.4944
30, 32.5056, 26.4944, 21.5056
33, 21, 16, 14
10, 20.4944, 14.5056, 16.4944
28, 25, 15.5056, 9.98889
30.5056, 26, 31.5056, 25
29.4944, 22.5056, 28.9889, 26.0111
21, 26, 20.9889, 22.0111
27, 30, 28, 14
19, 8, 8, 11.4944
19.5056, 6, 8.49445, 34.5056
18, 24, 15.4944, 11.5056
14, 14, 30.9889, 27.5056
8.50555, 11, 15.4944, 14.5056
9.98889, 10.0111, 10, 13
13, 14, 11, 13
9, 6, 15, 6
6, 13, 6, 7.98889
10.0111, 15, 7, 13
14, 13.4944, 9.50555, 7
7.49445, 19.4944, 8.01111, 7
4, 10, 6.49445, 3.50555
10.9889, 16.0111, 7, 13
6, 21.4833, 9.51666, 8
14, 5, 12, 4
3, 7, 23, 2
17, 0.000000, 9, 12.9889
11.0111, 11, 7, 8
2, 10, 7.98889, 21.5056
18.5056, 9, 7, 14
7, 5, 2, 7
13, 11, 4.49445, 10.5056
18, 11, 9, 0.000000
4, 9, 8.98889, 16.0111
18, 9, 7, 14
9, 15, 6, 0.000000
9, 7, 10, 14
19, 13, 8.49445, 18.5056
6, 11, 19, 16
4, 2, 2, 11.4944
9.50555, 9, 13, 10
7, 11, 5.49445, 5.50555
0.000000, 10, 5, 8
10, 7.49445, 10.5056, 3
3, 5, 6.49445, 8
9.50555, 11, 4, 5
9.49445, 5.50555, 9.98889, 13.0111
9, 7, 8, 6
7, 3, 5.98889, 9.01111
10, 2, 4.98889, 8.01111
0.000000, 9.98889, 17.5056, 5.50555
13, 2, 11, 8
8, 5, 2, 7.49445
6.50555, 6, 7, 17
4, 10, 13, 28
4, 7, 5, 12
5, 11, 2, 12
9, 8, 10, 20
58, 10.4944, 4.50555, 13
7, 3, 8, 5
16, 3, 10, 2
7, 6, 11, 0.000000
4
*END

*EOF