File: XRD:XRR/SCO/22102_S(CT)OL/22102_S(CT)OL_XRD_notAnn_001_2-Theta_Omega.asc
*TYPE		=  Raw
*CLASS		=  ASCII CLASS
*SAMPLE		=
*COMMENT	=
*FNAME		=  22102_S(CT)OL_XRD_notAnn_001_2-Theta_Omega.asc
*DATE		=  28-Jun-22 03:41

*GROUP_COUNT	=  1
*GONIO		=  SmartLab(In-plane), 0.000000
*ATTACHMENT	=  Z-Phi Stage
*ASC		=  0, 0, 0.000000, 0.000000
*I_MONOCHRO	=  Ge(220)x2, 0.000000
*FILTER		=  None
*C_MONOCHRO	=  None, 0.000000
*SLIT_NAME	=  0, Incident slit
*SLIT_NAME	=  1, Receiving slit # 1
*SLIT_NAME	=  2, Receiving slit # 2
*COUNTER	=  D/teX Ultra 250, 0
*POS_FORMAT	=  0
*SCAN_AXIS	=  2Theta/Omega
*MEAS_MODE	=  Continuous Scanning
*TARGET		=  29
*XRAY_CHAR	=  K-ALPHA1
*WAVE_LENGTH1	=  1.54059
*WAVE_LENGTH2	=  1.54441
*THICKNESS	=  0, 0.000000
*MU		=  0, 0.000000
*SCAN_MODE	=  2Theta/Omega
*SPEED_DIM	=  sec./step
*XUNIT		=  deg.
*YUNIT		=  counts
*SCALE_MODE	=  1
*REP_COUNT	=  0
*SE_COUNT	=  0
*STD_MATERIAL	=  Unknown, Unknown, 0.000000, 0.000000, 0.000000, 0.000000, 0.000000, 0.000000
*LATT_CONS	=  0, Unknown, Unknown, 0.000000, 0.000000, 0.000000, 0.000000, 0.000000, 0.000000
*SEC_COUNT	=  1
*TSPEC_SIZE	=  0
*EXTRA_SIZE	=  0
*MEMO		=

*BEGIN
*GROUP		=  0
*START		=  16
*STOP		=  31
*STEP		=  0.01
*OFFSET		=  0.084
*SPEED		=  28.5293
*SLIT_SPEC	=  0, 0.400mm, 0.4, 0.000000
*SLIT_SPEC	=  1, 0.400mm, 0.4, 0.000000
*SLIT_SPEC	=  2, 0.400mm, 0.4, 0.000000
*KV		=  40
*MA		=  30
*LOW		=  0.000000
*HIGH		=  0.000000
*CTEMPER	=  0, 0.000000
*CTEMPER	=  1, 0.000000
*CTEMPER	=  2, 0.000000
*PAREX		=  0, 0.000000
*PAREX		=  1, 0.000000
*PAREX		=  2, 0.000000
*PAREX		=  3, 0.000000
*PAREX		=  4, 0.000000
*PAREX		=  5, 0.000000
*PAREX		=  6, 0.000000
*PAREX		=  7, 0.000000
*PAREX		=  8, 0.000000
*PAREX		=  9, 0.000000
*PAREX		=  10, 0.000000
*PAREX		=  11, 0.000000
*PAREX		=  12, 0.000000
*PAREX		=  13, 0.000000
*PAREX		=  14, 0.000000
*PAREX		=  15, 0.000000
*FULL_SCALE	=  233032
*INDEX		=  0, 0, 0
*COUNT		=  1501
0.000000, 2, 1, 2
3, 5, 0.000000, 0.000000
13, 6, 0.000000, 0.000000
1, 0.000000, 2, 0.000000
0.000000, 5, 0.000000, 3
0.000000, 1, 4, 0.000000
0.000000, 2, 51, 0.000000
4, 2, 0.000000, 3
0.000000, 0.000000, 0.000000, 4
2, 0.000000, 0.000000, 2
0.000000, 0.000000, 0.000000, 4
2, 0.000000, 0.000000, 2
2, 0.000000, 2, 0.000000
0.000000, 2, 0.000000, 6
2, 1, 1, 3
3, 0.000000, 0.000000, 2
2, 0.000000, 0.000000, 3
0.000000, 2, 2, 3
0.000000, 0.000000, 2.49921, 0.500786
4, 0.000000, 4, 1.49764
4.49921, 0.500786, 3, 0.000000
2, 0.000000, 4, 0.000000
2, 2, 0.000000, 3
1, 0.000000, 4, 2
2, 0.000000, 0.000000, 4.49921
2, 2, 0.000000, 0.000000
2, 0.000000, 0.000000, 2
0.000000, 4, 0.000000, 2
0.000000, 2, 2, 2
3, 0.000000, 0.000000, 2
0.000000, 2, 0.000000, 2
2, 1, 2, 0.000000
0.000000, 0.000000, 2, 0.000000
0.000000, 0.000000, 1.49921, 0.500786
0.000000, 6, 0.000000, 3
7, 2, 4, 0.000000
2, 2, 2, 3
5.50079, 2, 6, 4
1.49921, 0.500786, 0.000000, 2
0.000000, 2, 0.000000, 0.000000
0.000000, 2, 0.000000, 0.000000
0.000000, 0.499214, 2.50079, 0.000000
2, 0.000000, 0.000000, 0.000000
0.000000, 3, 5, 2
0.000000, 2, 0.000000, 2
2, 3, 4, 8
0.000000, 5, 0.000000, 2
0.000000, 4, 1.49921, 0.500786
4, 6, 0.000000, 1
0.000000, 0.000000, 2, 2
2, 0.000000, 5, 2
7.49921, 2.50079, 0.000000, 2
0.000000, 0.000000, 2, 0.000000
3, 4.49921, 1.50079, 5
3, 5, 0.000000, 4
0.000000, 2, 2, 0.000000
1, 6, 0.499214, 2.50079
3, 2, 6, 0.000000
2, 2, 2, 2
6, 1, 0.000000, 2
0.000000, 7, 0.000000, 4
5, 2, 5, 0.000000
0.000000, 0.000000, 0.000000, 6.49921
4, 0.000000, 2, 0.000000
2, 0.000000, 0.000000, 4
1, 0.000000, 0.000000, 6
0.000000, 5, 2, 4
0.000000, 2, 0.000000, 2
4, 6, 4, 10
8, 9, 7, 9.49921
11, 9, 2.99843, 15.0016
12, 6, 6, 0.000000
5, 3, 12, 5
13, 10, 13, 7
6, 3.49921, 8.50079, 7
8.49921, 9.00157, 12, 5
2, 11, 11, 4
18.5024, 14, 24, 12
5, 11, 13, 11
15, 26, 23.4992, 35.4992
42.4992, 53.4992, 70, 72
151.498, 121.501, 139.002, 157.499
239.998, 236.501, 282.994, 276.507
280.002, 298.496, 335.501, 322.504
286.997, 317.502, 330.998, 352.502
223.005, 218.501, 208.997, 181
185.499, 141.502, 145.498, 154.501
159, 142.499, 129.499, 167.504
185.997, 186, 206.502, 211.499
331.499, 317.501, 399.994, 375.005
519.504, 494.992, 489.502, 577.002
1032.51, 1158.49, 1361.99, 1642.5
6061.96, 8978.45, 13858.9, 22771.3
1911988.1, 2453727.3, 4014274.8, 5248877
168230, 90600.4, 55145.9, 34667.8
4839.03, 3578.52, 2886.51, 2150.01
945.997, 867.006, 682.005, 615.501
364.498, 342.002, 307.006, 269.997
211, 156, 161.502, 162.998
100.998, 101.002, 119, 103.002
70.0016, 79.9969, 92.0016, 81.5008
82, 68.0016, 69, 49
49, 34, 56.4992, 38.5008
26, 21, 21, 25.4992
27, 27, 13.9984, 36.5008
24.9984, 29.0016, 18, 21.4992
23.4992, 13.5008, 13, 12
11.9984, 7.00157, 6, 10
5.49921, 19.5008, 12, 4
17.4992, 8.50079, 19, 10
2, 13, 5, 11
2, 4, 2, 7
4, 4, 6, 2
5, 7, 5.49921, 9.50079
0.000000, 3, 0.000000, 14
0.000000, 4, 3, 0.000000
3, 3, 7, 0.000000
0.000000, 9, 6, 4
0.000000, 0.000000, 4, 9
5, 0.000000, 2, 4
3.50079, 3, 0.000000, 6
0.000000, 0.000000, 3, 2
6, 3, 0.000000, 0.000000
2, 0.000000, 3, 0.000000
1, 0.000000, 2, 4.99843
2, 8, 2, 2
3, 4, 2, 6
0.000000, 2, 5, 0.000000
0.000000, 1, 2, 0.000000
0.000000, 4, 1, 3
0.000000, 0.000000, 0.000000, 0.000000
0.000000, 4, 0.000000, 0.000000
0.000000, 1, 5, 2
0.000000, 0.000000, 5, 0.000000
2, 2, 0.000000, 0.000000
0.000000, 0.499214, 2.50079, 0.000000
0.000000, 3, 7, 1.49921
0.000000, 2, 2, 0.000000
0.000000, 0.000000, 2, 4
0.000000, 5.49921, 0.500786, 7
0.000000, 2, 6, 1
6, 0.000000, 0.000000, 5
2, 3, 4, 1
0.000000, 0.000000, 3, 1
3, 2, 0.000000, 0.000000
2, 2, 0.000000, 4
2, 2, 0.000000, 4
5, 2, 6, 2
2, 11, 0.000000, 3
0.500786, 3, 0.000000, 6.49921
0.000000, 0.000000, 2, 0.000000
0.000000, 3, 0.000000, 1
0.000000, 0.000000, 2, 0.000000
2, 2, 0.000000, 0.000000
6, 2, 2, 2
0.000000, 2, 0.000000, 2
0.000000, 3, 0.000000, 0.000000
2, 0.000000, 2, 0.000000
2.50079, 0.000000, 2.49921, 0.500786
0.000000, 0.000000, 0.000000, 2
1, 4, 5, 0.000000
0.000000, 1, 0.000000, 0.000000
0.000000, 0.000000, 2, 0.000000
0.000000, 0.000000, 2, 2
0.000000, 1, 0.000000, 0.000000
2, 4, 0.000000, 2
0.000000, 0.000000, 9, 3
2, 1.49921, 0.500786, 2
5, 0.000000, 2, 1
0.000000, 5, 0.000000, 2
0.000000, 0.000000, 4, 2
5, 3, 4, 0.000000
0.000000, 0.000000, 0.000000, 5
1, 6, 0.499214, 1.50079
0.000000, 0.000000, 0.000000, 0.000000
3, 0.000000, 3, 5
2, 2, 0.000000, 7
0.000000, 4, 0.000000, 0.000000
0.000000, 0.000000, 0.000000, 0.000000
0.000000, 0.000000, 0.000000, 5
0.000000, 2, 0.000000, 0.000000
0.000000, 2, 3, 2
0.000000, 3, 0.000000, 0.000000
0.000000, 0.000000, 0.000000, 2
0.000000, 0.000000, 4, 0.000000
0.000000, 2, 4, 0.000000
0.000000, 2, 0.000000, 2
0.000000, 2, 0.000000, 3
0.000000
*END

*EOF