File: XRD:XRR/SCO/22102_S(CT)OL/22102_S(CT)OL_XRD_notAnn.csv
#twotheta, yobs, ycal, bkg, diff
42.0,27.4944,1.0,1.0,1.0
42.04,20.0,1.0,1.0,1.0
42.08,12.0,1.0,1.0,1.0
42.12,16.0,1.0,1.0,1.0
42.16,29.0,1.0,1.0,1.0
42.2,10.0,1.0,1.0,1.0
42.24,17.0,1.0,1.0,1.0
42.28,21.0,1.0,1.0,1.0
42.32,26.0,1.0,1.0,1.0
42.36,27.4944,1.0,1.0,1.0
42.4,11.0,1.0,1.0,1.0
42.44,15.0,1.0,1.0,1.0
42.48,18.0,1.0,1.0,1.0
42.52,34.0,1.0,1.0,1.0
42.56,41.4944,1.0,1.0,1.0
42.6,31.0,1.0,1.0,1.0
42.64,16.0,1.0,1.0,1.0
42.68,13.5056,1.0,1.0,1.0
42.72,25.5056,1.0,1.0,1.0
42.76,22.0,1.0,1.0,1.0
42.8,26.5056,1.0,1.0,1.0
42.84,23.5056,1.0,1.0,1.0
42.88,25.0,1.0,1.0,1.0
42.92,14.0,1.0,1.0,1.0
42.96,25.5056,1.0,1.0,1.0
43.0,20.0,1.0,1.0,1.0
43.04,24.0,1.0,1.0,1.0
43.08,30.0,1.0,1.0,1.0
43.12,27.0111,1.0,1.0,1.0
43.16,25.5056,1.0,1.0,1.0
43.2,32.5056,1.0,1.0,1.0
43.24,21.5056,1.0,1.0,1.0
43.28,24.0111,1.0,1.0,1.0
43.32,30.0,1.0,1.0,1.0
43.36,48.0,1.0,1.0,1.0
43.4,44.4944,1.0,1.0,1.0
43.44,40.4944,1.0,1.0,1.0
43.48,47.5056,1.0,1.0,1.0
43.52,31.0,1.0,1.0,1.0
43.56,60.0,1.0,1.0,1.0
43.6,54.9889,1.0,1.0,1.0
43.64,60.0111,1.0,1.0,1.0
43.68,48.5056,1.0,1.0,1.0
43.72,59.5056,1.0,1.0,1.0
43.76,58.4944,1.0,1.0,1.0
43.8,74.4944,1.0,1.0,1.0
43.84,46.5056,1.0,1.0,1.0
43.88,68.0,1.0,1.0,1.0
43.92,62.0,1.0,1.0,1.0
43.96,67.5056,1.0,1.0,1.0
44.0,71.5056,1.0,1.0,1.0
44.04,62.5167,1.0,1.0,1.0
44.08,65.5056,1.0,1.0,1.0
44.12,91.0111,1.0,1.0,1.0
44.16,98.9889,1.0,1.0,1.0
44.2,85.5056,1.0,1.0,1.0
44.24,126.4833,1.0,1.0,1.0
44.28,172.0,1.0,1.0,1.0
44.32,154.0,1.0,1.0,1.0
44.36,145.9889,1.0,1.0,1.0
44.4,195.0,1.0,1.0,1.0
44.44,182.4833,1.0,1.0,1.0
44.48,200.5056,1.0,1.0,1.0
44.52,266.0111,1.0,1.0,1.0
44.56,222.55,1.0,1.0,1.0
44.6,247.0,1.0,1.0,1.0
44.64,215.5056,1.0,1.0,1.0
44.68,258.9667,1.0,1.0,1.0
44.72,256.0333,1.0,1.0,1.0
44.76,321.0,1.0,1.0,1.0
44.8,300.9778,1.0,1.0,1.0
44.84,370.4944,1.0,1.0,1.0
44.88,380.0222,1.0,1.0,1.0
44.92,350.4722,1.0,1.0,1.0
44.96,326.0222,1.0,1.0,1.0
45.0,333.0222,1.0,1.0,1.0
45.04,287.0,1.0,1.0,1.0
45.08,348.5278,1.0,1.0,1.0
45.12,365.5389,1.0,1.0,1.0
45.16,429.4722,1.0,1.0,1.0
45.2,498.4611,1.0,1.0,1.0
45.24,699.9778,1.0,1.0,1.0
45.28,758.5167,1.0,1.0,1.0
45.32,897.5611,1.0,1.0,1.0
45.36,999.5389,1.0,1.0,1.0
45.4,1006.0,1.0,1.0,1.0
45.44,969.0333,1.0,1.0,1.0
45.48,1059.97,1.0,1.0,1.0
45.52,1054.47,1.0,1.0,1.0
45.56,1056.99,1.0,1.0,1.0
45.6,1121.51,1.0,1.0,1.0
45.64,1204.49,1.0,1.0,1.0
45.68,1302.56,1.0,1.0,1.0
45.72,1608.48,1.0,1.0,1.0
45.76,1954.98,1.0,1.0,1.0
45.8,2314.96,1.0,1.0,1.0
45.84,2934.47,1.0,1.0,1.0
45.88,3416.55,1.0,1.0,1.0
45.92,4188.47,1.0,1.0,1.0
45.96,4740.99,1.0,1.0,1.0
46.0,5173.45,1.0,1.0,1.0
46.04,5599.03,1.0,1.0,1.0
46.08,5516.53,1.0,1.0,1.0
46.12,5286.63,1.0,1.0,1.0
46.16,5238.98,1.0,1.0,1.0
46.2,4871.71,1.0,1.0,1.0
46.24,4329.04,1.0,1.0,1.0
46.28,3722.93,1.0,1.0,1.0
46.32,3227.92,1.0,1.0,1.0
46.36,2835.51,1.0,1.0,1.0
46.4,2423.62,1.0,1.0,1.0
46.44,2024.0,1.0,1.0,1.0
46.48,1671.57,1.0,1.0,1.0
46.52,1570.56,1.0,1.0,1.0
46.56,1281.42,1.0,1.0,1.0
46.6,1072.99,1.0,1.0,1.0
46.64,894.5278,1.0,1.0,1.0
46.68,775.4611,1.0,1.0,1.0
46.72,598.4833,1.0,1.0,1.0
46.76,503.5278,1.0,1.0,1.0
46.8,402.5389,1.0,1.0,1.0
46.84,330.4944,1.0,1.0,1.0
46.88,335.4611,1.0,1.0,1.0
46.92,357.9778,1.0,1.0,1.0
46.96,279.9889,1.0,1.0,1.0
47.0,343.0111,1.0,1.0,1.0
47.04,406.9667,1.0,1.0,1.0
47.08,479.5389,1.0,1.0,1.0
47.12,600.0,1.0,1.0,1.0
47.16,735.5278,1.0,1.0,1.0
47.2,860.9445,1.0,1.0,1.0
47.24,968.0333,1.0,1.0,1.0
47.28,1046.07,1.0,1.0,1.0
47.32,1016.59,1.0,1.0,1.0
47.36,982.4833,1.0,1.0,1.0
47.4,934.4833,1.0,1.0,1.0
47.44,857.9778,1.0,1.0,1.0
47.48,877.5167,1.0,1.0,1.0
47.52,937.4611,1.0,1.0,1.0
47.56,1016.98,1.0,1.0,1.0
47.6,1246.98,1.0,1.0,1.0
47.64,1666.93,1.0,1.0,1.0
47.68,2282.52,1.0,1.0,1.0
47.72,3444.32,1.0,1.0,1.0
47.76,6374.01,1.0,1.0,1.0
47.8,12785.1,1.0,1.0,1.0
47.84,30331.1,1.0,1.0,1.0
47.88,68326.2,1.0,1.0,1.0
47.92,156664,1.0,1.0,1.0
47.96,313333,1.0,1.0,1.0
48.0,504857,1.0,1.0,1.0
48.04,3312740.0,1.0,1.0,1.0
48.08,1145459.375,1.0,1.0,1.0
48.12,109430,1.0,1.0,1.0
48.16,24470.834,1.0,1.0,1.0
48.2,9535.65,1.0,1.0,1.0
48.24,4437.17,1.0,1.0,1.0
48.28,2617.43,1.0,1.0,1.0
48.32,1734.02,1.0,1.0,1.0
48.36,1205.99,1.0,1.0,1.0
48.4,836.0111,1.0,1.0,1.0
48.44,683.5278,1.0,1.0,1.0
48.48,502.5167,1.0,1.0,1.0
48.52,415.5389,1.0,1.0,1.0
48.56,354.4944,1.0,1.0,1.0
48.6,370.9667,1.0,1.0,1.0
48.64,289.0,1.0,1.0,1.0
48.68,259.9778,1.0,1.0,1.0
48.72,284.0111,1.0,1.0,1.0
48.76,278.0111,1.0,1.0,1.0
48.8,221.9778,1.0,1.0,1.0
48.84,189.0111,1.0,1.0,1.0
48.88,141.5056,1.0,1.0,1.0
48.92,159.9778,1.0,1.0,1.0
48.96,169.0,1.0,1.0,1.0
49.0,136.4944,1.0,1.0,1.0
49.04,124.9778,1.0,1.0,1.0
49.08,139.5056,1.0,1.0,1.0
49.12,126.0111,1.0,1.0,1.0
49.16,118.9778,1.0,1.0,1.0
49.2,122.0222,1.0,1.0,1.0
49.24,111.9889,1.0,1.0,1.0
49.28,77.5167,1.0,1.0,1.0
49.32,72.0,1.0,1.0,1.0
49.36,58.5056,1.0,1.0,1.0
49.4,65.4944,1.0,1.0,1.0
49.44,55.0111,1.0,1.0,1.0
49.48,83.9889,1.0,1.0,1.0
49.52,49.4944,1.0,1.0,1.0
49.56,60.0,1.0,1.0,1.0
49.6,47.4944,1.0,1.0,1.0
49.64,35.5056,1.0,1.0,1.0
49.68,42.9889,1.0,1.0,1.0
49.72,30.0,1.0,1.0,1.0
49.76,42.0,1.0,1.0,1.0
49.8,43.4944,1.0,1.0,1.0
49.84,35.0,1.0,1.0,1.0
49.88,26.0111,1.0,1.0,1.0
49.92,32.4944,1.0,1.0,1.0
49.96,34.9889,1.0,1.0,1.0
50.0,36.5167,1.0,1.0,1.0
50.04,25.9889,1.0,1.0,1.0
50.08,36.0111,1.0,1.0,1.0
50.12,26.0,1.0,1.0,1.0
50.16,35.0,1.0,1.0,1.0
50.2,26.0,1.0,1.0,1.0
50.24,36.0,1.0,1.0,1.0
50.28,29.0,1.0,1.0,1.0
50.32,40.0,1.0,1.0,1.0
50.36,15.0,1.0,1.0,1.0
50.4,40.4944,1.0,1.0,1.0
50.44,24.4944,1.0,1.0,1.0
50.48,24.0,1.0,1.0,1.0
50.52,21.0,1.0,1.0,1.0
50.56,19.0,1.0,1.0,1.0
50.6,22.9889,1.0,1.0,1.0
50.64,60.0,1.0,1.0,1.0
50.68,28.5056,1.0,1.0,1.0
50.72,25.5056,1.0,1.0,1.0
50.76,19.0,1.0,1.0,1.0
50.8,25.0,1.0,1.0,1.0
50.84,19.9889,1.0,1.0,1.0
50.88,31.0,1.0,1.0,1.0
50.92,11.0,1.0,1.0,1.0
50.96,26.0,1.0,1.0,1.0
51.0,22.0,1.0,1.0,1.0
51.04,25.0,1.0,1.0,1.0
51.08,25.0,1.0,1.0,1.0
51.12,21.4944,1.0,1.0,1.0
51.16,24.0,1.0,1.0,1.0
51.2,13.4944,1.0,1.0,1.0
51.24,30.5056,1.0,1.0,1.0
51.28,26.0222,1.0,1.0,1.0
51.32,30.0,1.0,1.0,1.0
51.36,20.0,1.0,1.0,1.0
51.4,8.0,1.0,1.0,1.0
51.44,33.5167,1.0,1.0,1.0
51.48,37.0,1.0,1.0,1.0
51.52,17.0,1.0,1.0,1.0
51.56,35.0,1.0,1.0,1.0
51.6,9.5056,1.0,1.0,1.0
51.64,26.0111,1.0,1.0,1.0
51.68,14.5056,1.0,1.0,1.0
51.72,46.0,1.0,1.0,1.0
51.76,32.9889,1.0,1.0,1.0
51.8,23.9889,1.0,1.0,1.0
51.84,33.0,1.0,1.0,1.0
51.88,18.5056,1.0,1.0,1.0
51.92,20.0,1.0,1.0,1.0
51.96,11.4944,1.0,1.0,1.0
52.0,17.0,1.0,1.0,1.0