File: XRD:XRR/SCO/22155_SCO(CL)/22155_SCO(CL)_XRD.csv
#twotheta, yobs, ycal, bkg, diff
42.0,17.4944,1.0,1.0,1.0
42.05,18.0,1.0,1.0,1.0
42.1,17.5056,1.0,1.0,1.0
42.15,5.0,1.0,1.0,1.0
42.2,11.0,1.0,1.0,1.0
42.25,11.0,1.0,1.0,1.0
42.3,14.5056,1.0,1.0,1.0
42.35,5.0,1.0,1.0,1.0
42.4,11.0,1.0,1.0,1.0
42.45,6.5056,1.0,1.0,1.0
42.5,17.4944,1.0,1.0,1.0
42.55,15.0111,1.0,1.0,1.0
42.6,18.4944,1.0,1.0,1.0
42.65,23.0,1.0,1.0,1.0
42.7,20.5056,1.0,1.0,1.0
42.75,24.0,1.0,1.0,1.0
42.8,19.0,1.0,1.0,1.0
42.85,34.4944,1.0,1.0,1.0
42.9,28.0,1.0,1.0,1.0
42.95,35.0111,1.0,1.0,1.0
43.0,15.0,1.0,1.0,1.0
43.05,25.0,1.0,1.0,1.0
43.1,21.0,1.0,1.0,1.0
43.15,10.0,1.0,1.0,1.0
43.2,15.0,1.0,1.0,1.0
43.25,9.0,1.0,1.0,1.0
43.3,12.0,1.0,1.0,1.0
43.35,10.0,1.0,1.0,1.0
43.4,11.0,1.0,1.0,1.0
43.45,6.0,1.0,1.0,1.0
43.5,2.0,1.0,1.0,1.0
43.55,18.0,1.0,1.0,1.0
43.6,15.4944,1.0,1.0,1.0
43.65,12.0,1.0,1.0,1.0
43.7,17.0,1.0,1.0,1.0
43.75,18.0,1.0,1.0,1.0
43.8,16.0,1.0,1.0,1.0
43.85,35.0,1.0,1.0,1.0
43.9,24.4944,1.0,1.0,1.0
43.95,24.0,1.0,1.0,1.0
44.0,16.0,1.0,1.0,1.0
44.05,16.0,1.0,1.0,1.0
44.1,30.0,1.0,1.0,1.0
44.15,11.5056,1.0,1.0,1.0
44.2,16.0,1.0,1.0,1.0
44.25,11.0,1.0,1.0,1.0
44.3,24.0,1.0,1.0,1.0
44.35,30.0,1.0,1.0,1.0
44.4,59.4944,1.0,1.0,1.0
44.45,94.0,1.0,1.0,1.0
44.5,115.0111,1.0,1.0,1.0
44.55,144.0111,1.0,1.0,1.0
44.6,176.4944,1.0,1.0,1.0
44.65,213.0,1.0,1.0,1.0
44.7,284.4944,1.0,1.0,1.0
44.75,335.0111,1.0,1.0,1.0
44.8,324.4833,1.0,1.0,1.0
44.85,397.5056,1.0,1.0,1.0
44.9,466.5167,1.0,1.0,1.0
44.95,496.4944,1.0,1.0,1.0
45.0,550.5611,1.0,1.0,1.0
45.05,592.4944,1.0,1.0,1.0
45.1,587.4833,1.0,1.0,1.0
45.15,574.4944,1.0,1.0,1.0
45.2,629.9778,1.0,1.0,1.0
45.25,698.4611,1.0,1.0,1.0
45.3,702.5167,1.0,1.0,1.0
45.35,702.9778,1.0,1.0,1.0
45.4,747.4389,1.0,1.0,1.0
45.45,857.9889,1.0,1.0,1.0
45.5,887.4833,1.0,1.0,1.0
45.55,1082.97,1.0,1.0,1.0
45.6,1135.03,1.0,1.0,1.0
45.65,1320.97,1.0,1.0,1.0
45.7,1637.96,1.0,1.0,1.0
45.75,1757.46,1.0,1.0,1.0
45.8,2142.07,1.0,1.0,1.0
45.85,2455.55,1.0,1.0,1.0
45.9,2755.12,1.0,1.0,1.0
45.95,2961.01,1.0,1.0,1.0
46.0,3475.58,1.0,1.0,1.0
46.05,3668.49,1.0,1.0,1.0
46.1,4093.45,1.0,1.0,1.0
46.15,4436.46,1.0,1.0,1.0
46.2,4556.03,1.0,1.0,1.0
46.25,4553.32,1.0,1.0,1.0
46.3,4831.06,1.0,1.0,1.0
46.35,4809.13,1.0,1.0,1.0
46.4,4746.46,1.0,1.0,1.0
46.45,4626.88,1.0,1.0,1.0
46.5,4461.97,1.0,1.0,1.0
46.55,4211.9,1.0,1.0,1.0
46.6,3959.94,1.0,1.0,1.0
46.65,3464.54,1.0,1.0,1.0
46.7,3180.0,1.0,1.0,1.0
46.75,2742.01,1.0,1.0,1.0
46.8,2327.51,1.0,1.0,1.0
46.85,1902.53,1.0,1.0,1.0
46.9,1487.53,1.0,1.0,1.0
46.95,1094.94,1.0,1.0,1.0
47.0,750.0,1.0,1.0,1.0
47.05,477.5278,1.0,1.0,1.0
47.1,287.9667,1.0,1.0,1.0
47.15,143.0333,1.0,1.0,1.0
47.2,117.5167,1.0,1.0,1.0
47.25,134.5278,1.0,1.0,1.0
47.3,215.9889,1.0,1.0,1.0
47.35,456.4944,1.0,1.0,1.0
47.4,659.4722,1.0,1.0,1.0
47.45,1061.51,1.0,1.0,1.0
47.5,1533.99,1.0,1.0,1.0
47.55,2040.98,1.0,1.0,1.0
47.6,2709.01,1.0,1.0,1.0
47.65,3424.39,1.0,1.0,1.0
47.7,4427.86,1.0,1.0,1.0
47.75,6149.811,1.0,1.0,1.0
47.8,9338.29,1.0,1.0,1.0
47.85,16516.6,1.0,1.0,1.0
47.9,45706.6,1.0,1.0,1.0
47.95,2809799.0,1.0,1.0,1.0
48.0,5940792.0,1.0,1.0,1.0
48.05,95263.4,1.0,1.0,1.0
48.1,14752.1,1.0,1.0,1.0
48.15,6343.03,1.0,1.0,1.0
48.2,3779.58,1.0,1.0,1.0
48.25,2596.561,1.0,1.0,1.0
48.3,1912.02,1.0,1.0,1.0
48.35,1396.47,1.0,1.0,1.0
48.4,1095.08,1.0,1.0,1.0
48.45,850.0,1.0,1.0,1.0
48.5,670.0111,1.0,1.0,1.0
48.55,491.4611,1.0,1.0,1.0
48.6,395.5056,1.0,1.0,1.0
48.65,259.4833,1.0,1.0,1.0
48.7,213.0111,1.0,1.0,1.0
48.75,136.5167,1.0,1.0,1.0
48.8,93.5056,1.0,1.0,1.0
48.85,77.5056,1.0,1.0,1.0
48.9,61.4833,1.0,1.0,1.0
48.95,45.5056,1.0,1.0,1.0
49.0,29.5056,1.0,1.0,1.0
49.05,45.5056,1.0,1.0,1.0
49.1,58.0,1.0,1.0,1.0
49.15,65.5056,1.0,1.0,1.0
49.2,55.4944,1.0,1.0,1.0
49.25,51.5056,1.0,1.0,1.0
49.3,54.0,1.0,1.0,1.0
49.35,52.4944,1.0,1.0,1.0
49.4,53.5056,1.0,1.0,1.0
49.45,44.5056,1.0,1.0,1.0
49.5,41.4833,1.0,1.0,1.0
49.55,22.9889,1.0,1.0,1.0
49.6,34.0,1.0,1.0,1.0
49.65,28.5056,1.0,1.0,1.0
49.7,23.4944,1.0,1.0,1.0
49.75,26.5056,1.0,1.0,1.0
49.8,22.0,1.0,1.0,1.0
49.85,16.0,1.0,1.0,1.0
49.9,6.0,1.0,1.0,1.0
49.95,13.0,1.0,1.0,1.0
50.0,5.0,1.0,1.0,1.0
50.05,8.5056,1.0,1.0,1.0
50.1,27.9889,1.0,1.0,1.0
50.15,5.4944,1.0,1.0,1.0
50.2,17.4944,1.0,1.0,1.0
50.25,23.0,1.0,1.0,1.0
50.3,10.0,1.0,1.0,1.0
50.35,20.5056,1.0,1.0,1.0
50.4,13.4944,1.0,1.0,1.0
50.45,20.0,1.0,1.0,1.0
50.5,0.0,1.0,1.0,1.0
50.55,19.4944,1.0,1.0,1.0
50.6,22.0,1.0,1.0,1.0
50.65,7.0,1.0,1.0,1.0
50.7,14.0,1.0,1.0,1.0
50.75,4.0,1.0,1.0,1.0
50.8,7.0,1.0,1.0,1.0
50.85,0.5056,1.0,1.0,1.0
50.9,8.0111,1.0,1.0,1.0
50.95,5.0,1.0,1.0,1.0
51.0,8.0,1.0,1.0,1.0
51.05,4.0,1.0,1.0,1.0
51.1,4.0,1.0,1.0,1.0
51.15,6.0,1.0,1.0,1.0
51.2,10.0,1.0,1.0,1.0
51.25,3.0,1.0,1.0,1.0
51.3,4.0,1.0,1.0,1.0
51.35,13.4944,1.0,1.0,1.0
51.4,9.0,1.0,1.0,1.0
51.45,12.0,1.0,1.0,1.0
51.5,9.0,1.0,1.0,1.0
51.55,8.0,1.0,1.0,1.0
51.6,13.0,1.0,1.0,1.0
51.65,9.0,1.0,1.0,1.0
51.7,9.0,1.0,1.0,1.0
51.75,4.0,1.0,1.0,1.0
51.8,8.0,1.0,1.0,1.0
51.85,0.0,1.0,1.0,1.0
51.9,3.0,1.0,1.0,1.0
51.95,5.0,1.0,1.0,1.0
52.0,14.0,1.0,1.0,1.0
0.44,926225.5,1.0,1.0,1.0
0.49,1009079.5,1.0,1.0,1.0
0.54,1068954.5,1.0,1.0,1.0
0.59,1097799.5,1.0,1.0,1.0
0.64,1071404.5,1.0,1.0,1.0
0.69,970869.5,1.0,1.0,1.0
0.74,771547,1.0,1.0,1.0
0.79,503323,1.0,1.0,1.0
0.84,285669,1.0,1.0,1.0
0.89,167375,1.0,1.0,1.0
0.94,102863,1.0,1.0,1.0
0.99,64752,1.0,1.0,1.0
1.04,40530.5,1.0,1.0,1.0
1.09,25040.502,1.0,1.0,1.0
1.14,15821.002,1.0,1.0,1.0
1.19,10167.501,1.0,1.0,1.0
1.24,7040.001,1.0,1.0,1.0
1.29,5628.5,1.0,1.0,1.0
1.34,4753.0,1.0,1.0,1.0
1.39,4509,1.0,1.0,1.0
1.44,4505.0,1.0,1.0,1.0
1.49,4439.999,1.0,1.0,1.0
1.54,4431.5,1.0,1.0,1.0
1.59,4274.5,1.0,1.0,1.0
1.64,4111,1.0,1.0,1.0
1.69,3782.501,1.0,1.0,1.0
1.74,3448.5,1.0,1.0,1.0
1.79,3264.0,1.0,1.0,1.0
1.84,2855.5,1.0,1.0,1.0
1.89,2718.0,1.0,1.0,1.0
1.94,2323.5,1.0,1.0,1.0
1.99,2076,1.0,1.0,1.0
2.04,1938.0,1.0,1.0,1.0
2.09,1793,1.0,1.0,1.0
2.14,1695.5,1.0,1.0,1.0
2.19,1509.5,1.0,1.0,1.0
2.24,1430,1.0,1.0,1.0
2.29,1350,1.0,1.0,1.0
2.34,1268.5,1.0,1.0,1.0
2.39,1105.5,1.0,1.0,1.0
2.44,1072.5,1.0,1.0,1.0
2.49,946.0001,1.0,1.0,1.0
2.54,939.4996,1.0,1.0,1.0
2.59,767.0002,1.0,1.0,1.0
2.64,657.5005,1.0,1.0,1.0
2.69,561.0007,1.0,1.0,1.0
2.74,477.0001,1.0,1.0,1.0
2.79,370.0001,1.0,1.0,1.0
2.84,367.9998,1.0,1.0,1.0
2.89,335.5001,1.0,1.0,1.0
2.94,263.4999,1.0,1.0,1.0
2.99,236.5002,1.0,1.0,1.0
3.04,188.5001,1.0,1.0,1.0
3.09,201.0001,1.0,1.0,1.0
3.14,166.9997,1.0,1.0,1.0
3.19,195.5002,1.0,1.0,1.0
3.24,170.4999,1.0,1.0,1.0
3.29,178.4998,1.0,1.0,1.0
3.34,211.9999,1.0,1.0,1.0
3.39,214.0002,1.0,1.0,1.0
3.44,209.0001,1.0,1.0,1.0
3.49,159.0002,1.0,1.0,1.0
3.54,166.4999,1.0,1.0,1.0
3.59,189.4998,1.0,1.0,1.0
3.64,186.5001,1.0,1.0,1.0
3.69,175.0002,1.0,1.0,1.0
3.74,187.9997,1.0,1.0,1.0
3.79,161.4999,1.0,1.0,1.0
3.84,159.0,1.0,1.0,1.0
3.89,173.0001,1.0,1.0,1.0
3.94,179.4996,1.0,1.0,1.0
3.99,174.0001,1.0,1.0,1.0
4.04,218.0002,1.0,1.0,1.0
4.09,215.0,1.0,1.0,1.0
4.14,164.0002,1.0,1.0,1.0
4.19,196.4998,1.0,1.0,1.0
4.24,185.9999,1.0,1.0,1.0
4.29,210.5003,1.0,1.0,1.0
4.34,160.5001,1.0,1.0,1.0
4.39,217.5002,1.0,1.0,1.0
4.44,238.0,1.0,1.0,1.0
4.49,193.0,1.0,1.0,1.0
4.5,195.0,1.0,1.0,1.0