File: XRD:XRR/STO/22145_STOL/22145_22145_XRD.csv
#twotheta, yobs, ycal, bkg, diff
42.0,7.0,1.0,1.0,1.0
42.05,7.0,1.0,1.0,1.0
42.1,4.0,1.0,1.0,1.0
42.15,4.0,1.0,1.0,1.0
42.2,5.0,1.0,1.0,1.0
42.25,0.0,1.0,1.0,1.0
42.3,5.0,1.0,1.0,1.0
42.35,0.0,1.0,1.0,1.0
42.4,2.0,1.0,1.0,1.0
42.45,2.0,1.0,1.0,1.0
42.5,2.0,1.0,1.0,1.0
42.55,0.0,1.0,1.0,1.0
42.6,5.0,1.0,1.0,1.0
42.65,7.5056,1.0,1.0,1.0
42.7,4.0,1.0,1.0,1.0
42.75,4.0,1.0,1.0,1.0
42.8,4.0,1.0,1.0,1.0
42.85,4.0,1.0,1.0,1.0
42.9,6.0,1.0,1.0,1.0
42.95,8.0,1.0,1.0,1.0
43.0,0.5056,1.0,1.0,1.0
43.05,18.0,1.0,1.0,1.0
43.1,0.0,1.0,1.0,1.0
43.15,12.0,1.0,1.0,1.0
43.2,14.0,1.0,1.0,1.0
43.25,10.0,1.0,1.0,1.0
43.3,14.0,1.0,1.0,1.0
43.35,9.0,1.0,1.0,1.0
43.4,19.5056,1.0,1.0,1.0
43.45,8.0,1.0,1.0,1.0
43.5,5.0,1.0,1.0,1.0
43.55,4.0,1.0,1.0,1.0
43.6,5.0,1.0,1.0,1.0
43.65,4.5056,1.0,1.0,1.0
43.7,11.0,1.0,1.0,1.0
43.75,12.4944,1.0,1.0,1.0
43.8,14.0,1.0,1.0,1.0
43.85,8.4944,1.0,1.0,1.0
43.9,10.5056,1.0,1.0,1.0
43.95,8.0,1.0,1.0,1.0
44.0,11.0,1.0,1.0,1.0
44.05,21.0,1.0,1.0,1.0
44.1,37.9889,1.0,1.0,1.0
44.15,38.0,1.0,1.0,1.0
44.2,55.4944,1.0,1.0,1.0
44.25,69.5056,1.0,1.0,1.0
44.3,93.0,1.0,1.0,1.0
44.35,109.5056,1.0,1.0,1.0
44.4,125.4944,1.0,1.0,1.0
44.45,117.0111,1.0,1.0,1.0
44.5,164.5278,1.0,1.0,1.0
44.55,192.4722,1.0,1.0,1.0
44.6,194.0111,1.0,1.0,1.0
44.65,235.9778,1.0,1.0,1.0
44.7,273.9556,1.0,1.0,1.0
44.75,267.5056,1.0,1.0,1.0
44.8,323.5056,1.0,1.0,1.0
44.85,317.0111,1.0,1.0,1.0
44.9,342.9889,1.0,1.0,1.0
44.95,339.0,1.0,1.0,1.0
45.0,371.0,1.0,1.0,1.0
45.05,387.5167,1.0,1.0,1.0
45.1,408.9778,1.0,1.0,1.0
45.15,398.4944,1.0,1.0,1.0
45.2,462.4833,1.0,1.0,1.0
45.25,396.0,1.0,1.0,1.0
45.3,382.5278,1.0,1.0,1.0
45.35,362.9445,1.0,1.0,1.0
45.4,400.5056,1.0,1.0,1.0
45.45,356.9778,1.0,1.0,1.0
45.5,368.0222,1.0,1.0,1.0
45.55,310.0222,1.0,1.0,1.0
45.6,320.0,1.0,1.0,1.0
45.65,316.0222,1.0,1.0,1.0
45.7,320.4722,1.0,1.0,1.0
45.75,319.0111,1.0,1.0,1.0
45.8,271.5056,1.0,1.0,1.0
45.85,270.4722,1.0,1.0,1.0
45.9,255.4722,1.0,1.0,1.0
45.95,241.0111,1.0,1.0,1.0
46.0,238.5278,1.0,1.0,1.0
46.05,232.5056,1.0,1.0,1.0
46.1,180.5056,1.0,1.0,1.0
46.15,179.4722,1.0,1.0,1.0
46.2,203.0222,1.0,1.0,1.0
46.25,212.0,1.0,1.0,1.0
46.3,190.0111,1.0,1.0,1.0
46.35,174.9778,1.0,1.0,1.0
46.4,185.0111,1.0,1.0,1.0
46.45,144.9778,1.0,1.0,1.0
46.5,164.9889,1.0,1.0,1.0
46.55,181.0222,1.0,1.0,1.0
46.6,163.5167,1.0,1.0,1.0
46.65,124.0111,1.0,1.0,1.0
46.7,161.5167,1.0,1.0,1.0
46.75,173.0,1.0,1.0,1.0
46.8,137.5056,1.0,1.0,1.0
46.85,171.9778,1.0,1.0,1.0
46.9,155.4944,1.0,1.0,1.0
46.95,148.0111,1.0,1.0,1.0
47.0,159.9889,1.0,1.0,1.0
47.05,141.9889,1.0,1.0,1.0
47.1,123.5056,1.0,1.0,1.0
47.15,143.0,1.0,1.0,1.0
47.2,131.0,1.0,1.0,1.0
47.25,173.5056,1.0,1.0,1.0
47.3,184.5167,1.0,1.0,1.0
47.35,176.9556,1.0,1.0,1.0
47.4,195.5167,1.0,1.0,1.0
47.45,220.5056,1.0,1.0,1.0
47.5,306.4611,1.0,1.0,1.0
47.55,376.4833,1.0,1.0,1.0
47.6,501.5167,1.0,1.0,1.0
47.65,629.5278,1.0,1.0,1.0
47.7,992.5056,1.0,1.0,1.0
47.75,1685.0,1.0,1.0,1.0
47.8,3515.9,1.0,1.0,1.0
47.85,9965.25,1.0,1.0,1.0
47.9,43413.6,1.0,1.0,1.0
47.95,1297343.625,1.0,1.0,1.0
48.0,389169.5,1.0,1.0,1.0
48.05,41176.8,1.0,1.0,1.0
48.1,9458.76,1.0,1.0,1.0
48.15,3594.07,1.0,1.0,1.0
48.2,1630.49,1.0,1.0,1.0
48.25,871.0111,1.0,1.0,1.0
48.3,480.9889,1.0,1.0,1.0
48.35,354.9889,1.0,1.0,1.0
48.4,235.0111,1.0,1.0,1.0
48.45,155.0111,1.0,1.0,1.0
48.5,114.0,1.0,1.0,1.0
48.55,90.4944,1.0,1.0,1.0
48.6,87.5056,1.0,1.0,1.0
48.65,61.5056,1.0,1.0,1.0
48.7,48.0,1.0,1.0,1.0
48.75,41.5167,1.0,1.0,1.0
48.8,21.4944,1.0,1.0,1.0
48.85,35.4944,1.0,1.0,1.0
48.9,45.0,1.0,1.0,1.0
48.95,30.4944,1.0,1.0,1.0
49.0,36.0,1.0,1.0,1.0
49.05,19.4944,1.0,1.0,1.0
49.1,10.0111,1.0,1.0,1.0
49.15,16.9889,1.0,1.0,1.0
49.2,10.4944,1.0,1.0,1.0
49.25,16.0,1.0,1.0,1.0
49.3,20.4944,1.0,1.0,1.0
49.35,12.0,1.0,1.0,1.0
49.4,8.0,1.0,1.0,1.0
49.45,14.5056,1.0,1.0,1.0
49.5,9.0,1.0,1.0,1.0
49.55,14.0,1.0,1.0,1.0
49.6,14.0,1.0,1.0,1.0
49.65,18.0,1.0,1.0,1.0
49.7,13.4944,1.0,1.0,1.0
49.75,10.0,1.0,1.0,1.0
49.8,8.0,1.0,1.0,1.0
49.85,10.0,1.0,1.0,1.0
49.9,8.0,1.0,1.0,1.0
49.95,6.5056,1.0,1.0,1.0
50.0,4.0,1.0,1.0,1.0
50.05,2.4944,1.0,1.0,1.0
50.1,3.0,1.0,1.0,1.0
50.15,5.0,1.0,1.0,1.0
50.2,4.4944,1.0,1.0,1.0
50.25,6.4944,1.0,1.0,1.0
50.3,8.0,1.0,1.0,1.0
50.35,11.0,1.0,1.0,1.0
50.4,6.0,1.0,1.0,1.0
50.45,5.0,1.0,1.0,1.0
50.5,0.0,1.0,1.0,1.0
50.55,5.0,1.0,1.0,1.0
50.6,7.0,1.0,1.0,1.0
50.65,0.0,1.0,1.0,1.0
50.7,6.0,1.0,1.0,1.0
50.75,7.0,1.0,1.0,1.0
50.8,2.4944,1.0,1.0,1.0
50.85,4.0,1.0,1.0,1.0
50.9,5.0,1.0,1.0,1.0
50.95,5.0,1.0,1.0,1.0
51.0,5.0,1.0,1.0,1.0
51.05,6.4944,1.0,1.0,1.0
51.1,2.0,1.0,1.0,1.0
51.15,2.4944,1.0,1.0,1.0
51.2,6.0,1.0,1.0,1.0
51.25,5.0,1.0,1.0,1.0
51.3,4.0,1.0,1.0,1.0
51.35,2.0,1.0,1.0,1.0
51.4,2.5056,1.0,1.0,1.0
51.45,0.0,1.0,1.0,1.0
51.5,0.0,1.0,1.0,1.0
51.55,2.0,1.0,1.0,1.0
51.6,5.0,1.0,1.0,1.0
51.65,6.0,1.0,1.0,1.0
51.7,6.0,1.0,1.0,1.0
51.75,1.0,1.0,1.0,1.0
51.8,0.0,1.0,1.0,1.0
51.85,0.0,1.0,1.0,1.0
51.9,10.0,1.0,1.0,1.0
51.95,0.0,1.0,1.0,1.0
52.0,0.0,1.0,1.0,1.0
0.44,339121,1.0,1.0,1.0
0.49,508042,1.0,1.0,1.0
0.54,595405.5,1.0,1.0,1.0
0.59,573758.5,1.0,1.0,1.0
0.64,477718,1.0,1.0,1.0
0.69,337287,1.0,1.0,1.0
0.74,213669,1.0,1.0,1.0
0.79,122431,1.0,1.0,1.0
0.84,63786,1.0,1.0,1.0
0.89,32426.5,1.0,1.0,1.0
0.94,18428.0,1.0,1.0,1.0
0.99,13269.501,1.0,1.0,1.0
1.04,12163.499,1.0,1.0,1.0
1.09,11868.5,1.0,1.0,1.0
1.14,11468.0,1.0,1.0,1.0
1.19,10770.001,1.0,1.0,1.0
1.24,9912.502,1.0,1.0,1.0
1.29,9136.001,1.0,1.0,1.0
1.34,7880,1.0,1.0,1.0
1.39,6702.501,1.0,1.0,1.0
1.44,5554,1.0,1.0,1.0
1.49,4658,1.0,1.0,1.0
1.54,3695,1.0,1.0,1.0
1.59,2964,1.0,1.0,1.0
1.64,2467.5,1.0,1.0,1.0
1.69,1924,1.0,1.0,1.0
1.74,1576.5,1.0,1.0,1.0
1.79,1341,1.0,1.0,1.0
1.84,1184.5,1.0,1.0,1.0
1.89,1095,1.0,1.0,1.0
1.94,1046.5,1.0,1.0,1.0
1.99,997.5002,1.0,1.0,1.0
2.04,1117.5,1.0,1.0,1.0
2.09,1102.5,1.0,1.0,1.0
2.14,1155,1.0,1.0,1.0
2.19,1197.5,1.0,1.0,1.0
2.24,1130,1.0,1.0,1.0
2.29,1087,1.0,1.0,1.0
2.34,1036.5,1.0,1.0,1.0
2.39,1019,1.0,1.0,1.0
2.44,929.5001,1.0,1.0,1.0
2.49,908.4998,1.0,1.0,1.0
2.54,748.9997,1.0,1.0,1.0
2.59,724.4998,1.0,1.0,1.0
2.64,599.0003,1.0,1.0,1.0
2.69,531.4999,1.0,1.0,1.0
2.74,407.5003,1.0,1.0,1.0
2.79,415.0003,1.0,1.0,1.0
2.84,414.0001,1.0,1.0,1.0
2.89,310.0,1.0,1.0,1.0
2.94,334.4996,1.0,1.0,1.0
2.99,325.0,1.0,1.0,1.0
3.04,329.4997,1.0,1.0,1.0
3.09,320.9999,1.0,1.0,1.0
3.14,394.5001,1.0,1.0,1.0
3.19,361.0001,1.0,1.0,1.0
3.24,364.0002,1.0,1.0,1.0
3.29,398.5001,1.0,1.0,1.0
3.34,312.4999,1.0,1.0,1.0
3.39,371.4997,1.0,1.0,1.0
3.44,361.4995,1.0,1.0,1.0
3.49,350.4999,1.0,1.0,1.0
3.54,369.4999,1.0,1.0,1.0
3.59,376.9999,1.0,1.0,1.0
3.64,347.5001,1.0,1.0,1.0
3.69,296.0002,1.0,1.0,1.0
3.74,340.0001,1.0,1.0,1.0
3.79,281.0001,1.0,1.0,1.0
3.84,307.5002,1.0,1.0,1.0
3.89,309.5002,1.0,1.0,1.0
3.94,279.4997,1.0,1.0,1.0
3.99,298.4998,1.0,1.0,1.0
4.04,267.4998,1.0,1.0,1.0
4.09,277.5001,1.0,1.0,1.0
4.14,276.0,1.0,1.0,1.0
4.19,284.5003,1.0,1.0,1.0
4.24,273.4999,1.0,1.0,1.0
4.29,280.5001,1.0,1.0,1.0
4.34,279.0,1.0,1.0,1.0
4.39,293.9999,1.0,1.0,1.0
4.44,307.0,1.0,1.0,1.0
4.49,284.5001,1.0,1.0,1.0
4.5,307.5002,1.0,1.0,1.0