File: XRD:XRR/STO/22145_STOL/22145_22145_XRD_2-Theta_Omega.asc
*TYPE		=  Raw
*CLASS		=  ASCII CLASS
*SAMPLE		=
*COMMENT	=
*FNAME		=  22145_22145_XRD_2-Theta_Omega.asc
*DATE		=  28-Sep-22 17:03

*GROUP_COUNT	=  1
*GONIO		=  SmartLab(In-plane), 0.000000
*ATTACHMENT	=  Z-Phi Stage
*ASC		=  0, 0, 0.000000, 0.000000
*I_MONOCHRO	=  Ge(220)x2, 0.000000
*FILTER		=  None
*C_MONOCHRO	=  None, 0.000000
*SLIT_NAME	=  0, Incident slit
*SLIT_NAME	=  1, Receiving slit # 1
*SLIT_NAME	=  2, Receiving slit # 2
*COUNTER	=  D/teX Ultra 250, 0
*POS_FORMAT	=  0
*SCAN_AXIS	=  2Theta/Omega
*MEAS_MODE	=  Continuous Scanning
*TARGET		=  29
*XRAY_CHAR	=  K-ALPHA1
*WAVE_LENGTH1	=  1.54059
*WAVE_LENGTH2	=  1.54441
*THICKNESS	=  0, 0.000000
*MU		=  0, 0.000000
*SCAN_MODE	=  2Theta/Omega
*SPEED_DIM	=  sec./step
*XUNIT		=  deg.
*YUNIT		=  counts
*SCALE_MODE	=  1
*REP_COUNT	=  0
*SE_COUNT	=  0
*STD_MATERIAL	=  Unknown, Unknown, 0.000000, 0.000000, 0.000000, 0.000000, 0.000000, 0.000000
*LATT_CONS	=  0, Unknown, Unknown, 0.000000, 0.000000, 0.000000, 0.000000, 0.000000, 0.000000
*SEC_COUNT	=  2
*TSPEC_SIZE	=  0
*EXTRA_SIZE	=  0
*MEMO		=

*BEGIN
*GROUP		=  0
*START		=  42
*STOP		=  52
*STEP		=  0.01
*OFFSET		=  -0.141300
*SPEED		=  14.9585
*SLIT_SPEC	=  0, 0.500mm, 0.5, 0.000000
*SLIT_SPEC	=  1, 0.500mm, 0.5, 0.000000
*SLIT_SPEC	=  2, 0.500mm, 0.5, 0.000000
*KV		=  40
*MA		=  30
*LOW		=  0.000000
*HIGH		=  0.000000
*CTEMPER	=  0, 0.000000
*CTEMPER	=  1, 0.000000
*CTEMPER	=  2, 0.000000
*PAREX		=  0, 0.000000
*PAREX		=  1, 0.000000
*PAREX		=  2, 0.000000
*PAREX		=  3, 0.000000
*PAREX		=  4, 0.000000
*PAREX		=  5, 0.000000
*PAREX		=  6, 0.000000
*PAREX		=  7, 0.000000
*PAREX		=  8, 0.000000
*PAREX		=  9, 0.000000
*PAREX		=  10, 0.000000
*PAREX		=  11, 0.000000
*PAREX		=  12, 0.000000
*PAREX		=  13, 0.000000
*PAREX		=  14, 0.000000
*PAREX		=  15, 0.000000
*FULL_SCALE	=  2096652
*INDEX		=  0, 0, 0
*COUNT		=  1001
7, 2, 6, 2
2, 7, 0.000000, 6
0.000000, 4, 4, 6.49445
3.50555, 5, 4, 4
0.000000, 3, 6, 13.4944
5, 9.50555, 7, 9.49445
2.50555, 0.000000, 8, 2.98889
3.01111, 2, 5, 4
2.49445, 5.50555, 4, 0.000000
0.494446, 1.50555, 4, 0.000000
2, 7, 2, 2
7, 2, 2, 1
3, 11, 2, 3
10, 11, 4, 0.000000
5.49445, 0.505554, 5, 6
5, 1.49445, 3.50555, 0.000000
4.49445, 7.50555, 6, 8
12, 5, 4, 6
8, 7, 6, 4
7, 3, 0.000000, 5
4, 7, 3, 4
6, 4, 14, 4
11, 9, 6, 11.4944
15, 10.5056, 4, 8
11, 2, 11, 4.49445
0.505554, 15, 7.49445, 15
12.5056, 18, 12, 2.98889
13.5056, 15.5056, 0.000000, 15
7, 5.49445, 16.5056, 12
6, 18, 14, 15
14, 12.4944, 19.5056, 12
9, 10, 9, 17.9889
15.0111, 11, 14, 15
12, 10, 21, 9
7, 14, 10, 18.4944
19.5056, 9.49445, 7, 8.50555
0.000000, 8, 14.4944, 4.50555
10, 10, 5, 6
9, 5.49445, 8.50555, 4
10, 0.494446, 10.5056, 16
5, 9, 7.49445, 7.50555
9.49445, 4.50555, 6, 3
3, 14, 11, 0.000000
3, 13, 8, 12.4944
10.5056, 2, 6, 2
14, 4, 9, 4
9, 8.49445, 2.50555, 8
14, 11.4944, 10.5056, 16
5, 10, 8, 8
9, 7, 19, 13
11, 19.4944, 26, 29.5056
16, 21, 11, 24
18, 37, 37.9889, 32.0111
38.9889, 33.5056, 54, 38
35, 57.4833, 51.5167, 45.5056
55.4944, 40.4944, 53.9889, 59.5167
65, 69.5056, 42.4944, 68
93, 75.5056, 93, 92
104.989, 105, 89.9889, 109.506
105.506, 107.494, 123.517, 120.989
125.494, 118, 131.506, 104
153.989, 117.011, 131.483, 174.517
143.506, 148.472, 164.528, 176.989
185.506, 148.494, 174.011, 192.472
192.506, 187.989, 199.011, 190.506
194.011, 220.483, 194.517, 229
222, 235.978, 209.506, 222.011
237.506, 283.483, 273.956, 253.056
225.494, 253.483, 268.989, 267.506
281.506, 283.506, 248.011, 269.483
323.506, 309.011, 294.494, 298
306.967, 317.011, 320.528, 304.483
290.011, 324.494, 342.989, 336.022
318.989, 388.494, 324, 339
354.483, 343.022, 354.506, 349.494
371, 364.472, 356.033, 382.967
390.494, 387.517, 357.517, 376.483
372, 386.022, 408.978, 384.528
376.989, 387.967, 402.539, 398.494
381.494, 391.483, 393.506, 409.022
462.483, 349.506, 387, 391.528
377.461, 396, 389.483, 416.022
374.517, 417.956, 382.528, 388.494
393.494, 424.022, 402.022, 362.944
392.55, 363.483, 382, 391.494
400.506, 381.483, 386.022, 350.978
398.528, 356.978, 358.989, 342.033
352.989, 377.461, 368.022, 336.517
361.011, 331.483, 353.483, 310.022
364.506, 341.472, 325.011, 340.011
320, 319.483, 324.011, 320.022
315.967, 316.022, 306.483, 342.506
301, 304.506, 320.472, 311.528
307.517, 292.989, 332.472, 319.011
323.494, 289, 310.539, 275.967
271.506, 300.483, 307.506, 274.528
253.011, 270.472, 290.517, 257.011
282.494, 249.011, 255.472, 250.022
253.956, 267.989, 233.539, 241.011
242.494, 233.989, 272, 223.494
238.528, 219.978, 253, 208
233, 232.506, 190.506, 230.989
201.011, 206, 180.506, 215
186.494, 215.506, 166, 179.472
196.011, 187.517, 195.011, 193.472
203.022, 170.483, 187.011, 174.483
189.022, 212, 158.978, 167.506
184.517, 183.494, 190.011, 147.483
164.506, 185.506, 175, 174.978
178.506, 203.022, 208.978, 182.517
185.011, 154.483, 171.989, 169.528
130, 144.978, 163.494, 170.011
176, 162, 164.989, 131.517
151.989, 167.483, 161.011, 181.022
147.989, 189.494, 153.517, 144.989
163.517, 189.967, 136.022, 161.483
175.506, 124.011, 145.494, 173.494
153.978, 181.517, 161.517, 143.989
155.506, 147, 166.506, 173
159.011, 135.989, 120.494, 138.494
137.506, 168.989, 157.011, 148
146.011, 171.978, 173.506, 149.506
169.011, 143, 155.494, 145
133.494, 159, 139, 148.011
145.494, 156, 150.494, 155.483
159.989, 123.528, 135.506, 158.506
151.494, 141.989, 171.506, 144.494
150.506, 148, 123.506, 152
139.506, 127.989, 146.494, 143
127, 152.989, 130.022, 146
131, 157, 176.989, 163.517
146.978, 173.506, 184.494, 142.022
173.989, 175.494, 184.517, 170.978
192, 219.517, 190, 176.956
178.539, 188.494, 202, 200.494
195.517, 206.978, 243.517, 248.989
265.506, 220.506, 239, 248.472
289.011, 266.517, 306.461, 346.022
313.494, 310.528, 313.483, 376.483
381.528, 372.45, 422.506, 468.494
501.517, 490.978, 561.978, 555.539
605.472, 629.528, 666.989, 759.45
831.494, 896.011, 992.506, 1086.51
1144.99, 1338.92, 1490.02, 1685
1896.42, 2157.55, 2534.36, 3014.94
3515.9, 4216.96, 5118.41, 6218.36
7969.83, 9965.25, 12971.5, 17059.4
22450.5, 31049.7, 43413.6, 65263
104233, 186374, 400865, 1297343.6
10329434, 20932760, 5108043, 1139143.4
389170, 206979, 131404, 88187.3
59447.6, 41176.8, 28987.8, 21150.1
16006, 12380.9, 9458.76, 7841.52
6519.84, 5265.51, 4193.62, 3594.07
3019.06, 2505.46, 2137.09, 1910.11
1630.49, 1392.98, 1201.99, 1016.54
963.022, 871.011, 755.022, 647.55
548.483, 528.517, 480.989, 435.978
420.044, 398.978, 336.022, 354.989
317.011, 259.978, 265, 247.022
235.011, 196.989, 206.011, 171.506
195.483, 155.011, 158.011, 153.989
155.517, 128, 114, 103.989
124.494, 130.494, 105.517, 90.4944
102, 101, 79, 93
87.5056, 64.4944, 66.4944, 67.0111
78, 61.5056, 56.4833, 69.5167
68.4833, 65.0111, 48, 63.4944
56, 56.5056, 44.9889, 41.5167
34, 40.4944, 41, 38
21.4944, 37.5056, 48, 28.5056
37, 35.4944, 38.5056, 39.9889
36.5056, 31, 45, 32.5056
34, 38.9889, 32.0111, 30.4944
29.5056, 35.4833, 20.5167, 19
36, 27.4944, 27.5056, 23.4944
22, 19.4944, 32.0111, 20
38, 21.9889, 10.0111, 29.4944
23.5056, 16, 24, 16.9889
22.5056, 17.5056, 16, 18
10.4944, 16.5056, 6.49445, 14.5056
13, 16, 19, 36
14, 7, 20.4944, 14.5056
8.49445, 10.5056, 15, 12
12.4944, 16.5056, 14, 55
8, 11.4944, 7.50555, 27
5.49445, 14.5056, 12, 10
19, 14, 9, 7
12, 2, 10, 14
3.49445, 6.50555, 5, 7
14, 6, 9, 8
11, 18, 2, 2
4, 10, 13.4944, 12.5056
5, 10, 10, 10
14, 6, 8, 6
8, 6, 5, 3
2, 10, 0.000000, 4
8, 2, 8, 10
2, 11, 9.49445, 6.50555
10, 4, 0.000000, 8
4, 8, 7, 4
6, 2.49445, 3.50555, 2
2, 3, 3, 11
2, 7, 2, 5
3, 7, 2, 15
4.49445, 6.50555, 5, 7
0.000000, 6.49445, 7.50555, 9
6, 3, 8, 9
2, 8, 5, 11
7, 2, 6, 2
6, 2, 2, 7
0.000000, 5, 4, 7
5, 0.000000, 0.000000, 2
6, 2, 2, 5
4, 4, 2, 0.000000
7, 2, 4, 6
5, 0.000000, 5, 8
6, 6, 6, 2
9, 4, 11.4944, 7
4.50555, 0.000000, 7, 11
2.49445, 0.505554, 9.49445, 6.49445
1.01111, 4, 4, 7
5, 4, 5, 2
0.000000, 3, 2, 5
6, 2, 2, 2
5, 0.000000, 4, 2
0.000000, 6.49445, 5.50555, 0.000000
2, 7, 2, 4
4, 5, 1, 2.49445
4.50555, 5, 2, 0.000000
6, 5, 9, 2
2, 5, 5, 2
7, 2, 4, 8
0.000000, 5, 7, 2
5, 4, 0.000000, 5.49445
2.50555, 0.000000, 0.000000, 3.49445
1.50555, 0.000000, 4, 6
2, 5, 0.000000, 0.000000
0.000000, 3, 0.000000, 2
3, 3, 0.000000, 6
5, 1.49445, 5.50555, 2
2, 6, 3, 6
2, 6, 6, 2
4, 0.000000, 6, 1
5, 4, 7, 4
0.000000, 9, 3, 4
7, 0.000000, 2, 2
0.494446, 5.50555, 10, 2
0.000000, 5, 2, 0.000000
0.000000, 2, 3, 9
0.000000
*END

*BEGIN
*GROUP		=  0
*START		=  0.4
*STOP		=  4.5
*STEP		=  0.01
*OFFSET		=  -0.141300
*SPEED		=  23.9588
*SLIT_SPEC	=  0, 1.000mm, 1, 0.000000
*SLIT_SPEC	=  1, 1.000mm, 1, 0.000000
*SLIT_SPEC	=  2, 1.000mm, 1, 0.000000
*KV		=  40
*MA		=  30
*LOW		=  0.000000
*HIGH		=  0.000000
*CTEMPER	=  0, 0.000000
*CTEMPER	=  1, 0.000000
*CTEMPER	=  2, 0.000000
*PAREX		=  0, 0.000000
*PAREX		=  1, 0.000000
*PAREX		=  2, 0.000000
*PAREX		=  3, 0.000000
*PAREX		=  4, 0.000000
*PAREX		=  5, 0.000000
*PAREX		=  6, 0.000000
*PAREX		=  7, 0.000000
*PAREX		=  8, 0.000000
*PAREX		=  9, 0.000000
*PAREX		=  10, 0.000000
*PAREX		=  11, 0.000000
*PAREX		=  12, 0.000000
*PAREX		=  13, 0.000000
*PAREX		=  14, 0.000000
*PAREX		=  15, 0.000000
*FULL_SCALE	=  30737.8
*INDEX		=  0, 0, 0
*COUNT		=  411
205804, 239192, 271346, 305801
339121, 375798, 413264, 447764
480639, 508042, 534616, 556912
575876, 587910, 595406, 597503
595980, 590528, 584058, 573759
562666, 543179, 523052, 501375
477718, 452071, 424831, 396026
366468, 337287, 311451, 285543
260873, 235498, 213669, 192004
172811, 154670, 138650, 122431
108027, 95208.5, 84047, 73519
63786, 55953.5, 48833, 42709.5
36823, 32426.5, 28588, 25315.5
22191.5, 20039.5, 18428, 16828.5
15443.5, 14589.5, 13988.5, 13269.5
12934, 12624, 12576.5, 12345.5
12163.5, 12341, 12071, 11984
12059.5, 11868.5, 11697.5, 11715.5
11757.5, 11701, 11468, 11766.5
11242, 11239, 10861, 10770
10791, 10533, 10318.5, 10194
9912.5, 9824.5, 9521, 9181
9123.5, 9136, 8572, 8507
8371, 7958.5, 7880, 7555
7520, 7201, 7182, 6702.5
6329, 6272, 6096.5, 5849
5554, 5509.5, 5164, 4995
4754, 4658, 4386.5, 4264.5
4133.5, 3894.5, 3695, 3549
3407.5, 3338, 3183, 2964
2910.5, 2772.5, 2641.5, 2514
2467.5, 2337.5, 2168.5, 2103
2056, 1924, 1836.5, 1738
1691.5, 1645, 1576.5, 1550
1436, 1384.5, 1334.5, 1341
1256.5, 1254.5, 1195, 1232
1184.5, 1209, 1177.5, 1078.5
1127, 1095, 1042.5, 1100.5
1063.5, 1083, 1046.5, 1065
1016, 1080.5, 1048.5, 997.5
1032, 1143, 1089.5, 1078
1117.5, 1116, 1061.5, 1097.5
1113, 1102.5, 1093, 1091.5
1150, 1150.5, 1155, 1161
1140.5, 1148, 1074.5, 1197.5
1117.5, 1198.5, 1153.5, 1081
1130, 1073.5, 1143, 1184
1141, 1087, 1138, 1036.5
1088, 1067, 1036.5, 1049.5
1064, 1058, 962.999, 1019
994.5, 983.5, 958, 899
929.5, 900.5, 904.499, 901.5
889.5, 908.5, 862.5, 841
771, 785, 749, 782
785.999, 751.501, 729.5, 724.5
674.5, 729.5, 570.5, 671.5
599, 576.5, 614, 586.5
536.5, 531.5, 538, 533.5
495.5, 499.999, 407.5, 443
422, 448, 395.5, 415
447, 384, 418, 380.5
414, 388, 356.5, 348
347.5, 310, 371, 325
346.5, 328, 334.5, 344.5
330.5, 373.5, 304, 325
342.5, 335, 312, 340
329.5, 334.5, 331, 364
341.5, 321, 332, 343
328.5, 331.5, 394.5, 331
319, 325, 369, 361
308.5, 353.5, 352, 394
364, 372, 352, 388
361.5, 398.5, 380.5, 394.5
343, 350.5, 312.5, 358.499
359.001, 379.5, 367.5, 371.5
374.5, 340, 380, 380.5
361.5, 342.5, 375, 362.5
332.5, 350.5, 350.5, 341
360.5, 371, 369.5, 371.5
347, 349, 343.001, 377
373, 369.5, 331, 359
347.5, 358.5, 311.5, 320
368.5, 296, 322, 321
300.5, 326, 340, 320.5
316, 332, 327.5, 281
336, 286, 309, 318.5
307.5, 264, 322.5, 290
291.5, 309.5, 299, 306
280.5, 251, 279.5, 298
298.5, 276.5, 284.5, 298.5
303, 281.5, 250.5, 274
267.5, 318.5, 302.5, 310.5
259.5, 277.5, 268, 292
241.501, 241, 276, 278.5
297, 296, 284.5, 284.5
256.5, 288, 289.5, 309.5
273.5, 305.5, 258, 276
255.5, 280.5, 294.5, 279
302, 313.5, 279, 235
274, 311.5, 266.5, 294
347.5, 294.5, 278, 271.5
307, 287.5, 304.5, 243.5
286, 284.5, 307.5
*END

*EOF