File: XRD:XRR/RIXS 214/M12/M12c_L2NON_220_XRD.csv
#twotheta, yobs, ycal, bkg, diff
42.0,2602.96,1.0,1.0,1.0
42.04,3330.58,1.0,1.0,1.0
42.08,4109.439,1.0,1.0,1.0
42.12,4889.54,1.0,1.0,1.0
42.16,5927.99,1.0,1.0,1.0
42.2,7078.52,1.0,1.0,1.0
42.24,7987.45,1.0,1.0,1.0
42.28,9033.9,1.0,1.0,1.0
42.32,10045.3,1.0,1.0,1.0
42.36,11021.4,1.0,1.0,1.0
42.4,11775.7,1.0,1.0,1.0
42.44,12604,1.0,1.0,1.0
42.48,13263.583,1.0,1.0,1.0
42.52,13531.7,1.0,1.0,1.0
42.56,13961.6,1.0,1.0,1.0
42.6,14207.5,1.0,1.0,1.0
42.64,14077.6,1.0,1.0,1.0
42.68,13717.6,1.0,1.0,1.0
42.72,13481,1.0,1.0,1.0
42.76,12757.9,1.0,1.0,1.0
42.8,12156.1,1.0,1.0,1.0
42.84,11342.1,1.0,1.0,1.0
42.88,10342.6,1.0,1.0,1.0
42.92,9291.03,1.0,1.0,1.0
42.96,8406.62,1.0,1.0,1.0
43.0,7226.49,1.0,1.0,1.0
43.04,6219.65,1.0,1.0,1.0
43.08,5255.96,1.0,1.0,1.0
43.12,4352.98,1.0,1.0,1.0
43.16,3532.38,1.0,1.0,1.0
43.2,2808.02,1.0,1.0,1.0
43.24,2064.0,1.0,1.0,1.0
43.28,1452.52,1.0,1.0,1.0
43.32,1081.47,1.0,1.0,1.0
43.36,794.5278,1.0,1.0,1.0
43.4,569.0667,1.0,1.0,1.0
43.44,362.9778,1.0,1.0,1.0
43.48,338.5278,1.0,1.0,1.0
43.52,314.9667,1.0,1.0,1.0
43.56,405.5056,1.0,1.0,1.0
43.6,404.5167,1.0,1.0,1.0
43.64,514.0,1.0,1.0,1.0
43.68,596.9667,1.0,1.0,1.0
43.72,704.4944,1.0,1.0,1.0
43.76,786.0333,1.0,1.0,1.0
43.8,826.5278,1.0,1.0,1.0
43.84,848.0,1.0,1.0,1.0
43.88,875.0,1.0,1.0,1.0
43.92,837.5278,1.0,1.0,1.0
43.96,768.5056,1.0,1.0,1.0
44.0,716.5278,1.0,1.0,1.0
44.04,635.5278,1.0,1.0,1.0
44.08,566.9556,1.0,1.0,1.0
44.12,505.55,1.0,1.0,1.0
44.16,421.0,1.0,1.0,1.0
44.2,346.5278,1.0,1.0,1.0
44.24,293.5056,1.0,1.0,1.0
44.28,279.4833,1.0,1.0,1.0
44.32,254.4833,1.0,1.0,1.0
44.36,220.4944,1.0,1.0,1.0
44.4,218.5056,1.0,1.0,1.0
44.44,270.5056,1.0,1.0,1.0
44.48,270.5056,1.0,1.0,1.0
44.52,301.0111,1.0,1.0,1.0
44.56,333.4944,1.0,1.0,1.0
44.6,408.4833,1.0,1.0,1.0
44.64,385.5167,1.0,1.0,1.0
44.68,440.5167,1.0,1.0,1.0
44.72,390.0222,1.0,1.0,1.0
44.76,400.0,1.0,1.0,1.0
44.8,452.9889,1.0,1.0,1.0
44.84,416.4611,1.0,1.0,1.0
44.88,403.0,1.0,1.0,1.0
44.92,347.5167,1.0,1.0,1.0
44.96,367.4833,1.0,1.0,1.0
45.0,312.5056,1.0,1.0,1.0
45.04,274.4944,1.0,1.0,1.0
45.08,301.4833,1.0,1.0,1.0
45.12,259.4833,1.0,1.0,1.0
45.16,261.9889,1.0,1.0,1.0
45.2,267.9889,1.0,1.0,1.0
45.24,249.9889,1.0,1.0,1.0
45.28,247.4944,1.0,1.0,1.0
45.32,223.0,1.0,1.0,1.0
45.36,270.9889,1.0,1.0,1.0
45.4,281.9889,1.0,1.0,1.0
45.44,293.5167,1.0,1.0,1.0
45.48,391.9778,1.0,1.0,1.0
45.52,379.4611,1.0,1.0,1.0
45.56,389.5056,1.0,1.0,1.0
45.6,406.4833,1.0,1.0,1.0
45.64,401.0,1.0,1.0,1.0
45.68,416.5278,1.0,1.0,1.0
45.72,421.0111,1.0,1.0,1.0
45.76,412.0,1.0,1.0,1.0
45.8,437.5167,1.0,1.0,1.0
45.84,395.5278,1.0,1.0,1.0
45.88,407.4833,1.0,1.0,1.0
45.92,402.9778,1.0,1.0,1.0
45.96,423.9778,1.0,1.0,1.0
46.0,393.0222,1.0,1.0,1.0
46.04,453.0222,1.0,1.0,1.0
46.08,445.0,1.0,1.0,1.0
46.12,534.0111,1.0,1.0,1.0
46.16,498.0222,1.0,1.0,1.0
46.2,543.4722,1.0,1.0,1.0
46.24,604.9778,1.0,1.0,1.0
46.28,641.5167,1.0,1.0,1.0
46.32,762.45,1.0,1.0,1.0
46.36,932.8277,1.0,1.0,1.0
46.4,999.5167,1.0,1.0,1.0
46.44,1004.02,1.0,1.0,1.0
46.48,1129.02,1.0,1.0,1.0
46.52,1185.07,1.0,1.0,1.0
46.56,1322.44,1.0,1.0,1.0
46.6,1594.02,1.0,1.0,1.0
46.64,1813.49,1.0,1.0,1.0
46.68,2083.99,1.0,1.0,1.0
46.72,2440.51,1.0,1.0,1.0
46.76,2943.53,1.0,1.0,1.0
46.8,3873.1,1.0,1.0,1.0
46.84,5072.92,1.0,1.0,1.0
46.88,7611.89,1.0,1.0,1.0
46.92,14707.5,1.0,1.0,1.0
46.96,36582.4,1.0,1.0,1.0
47.0,70868.2,1.0,1.0,1.0
47.04,202409,1.0,1.0,1.0
47.08,3491662.0,1.0,1.0,1.0
47.12,372651.875,1.0,1.0,1.0
47.16,51780.5,1.0,1.0,1.0
47.2,19833.2,1.0,1.0,1.0
47.24,10133.1,1.0,1.0,1.0
47.28,6326.66,1.0,1.0,1.0
47.32,4207.08,1.0,1.0,1.0
47.36,2949.52,1.0,1.0,1.0
47.4,2161.49,1.0,1.0,1.0
47.44,1707.52,1.0,1.0,1.0
47.48,1395.46,1.0,1.0,1.0
47.52,1135.02,1.0,1.0,1.0
47.56,886.0333,1.0,1.0,1.0
47.6,757.0333,1.0,1.0,1.0
47.64,650.4722,1.0,1.0,1.0
47.68,572.5278,1.0,1.0,1.0
47.72,547.5389,1.0,1.0,1.0
47.76,424.0333,1.0,1.0,1.0
47.8,420.45,1.0,1.0,1.0
47.84,301.0,1.0,1.0,1.0
47.88,305.0,1.0,1.0,1.0
47.92,262.4944,1.0,1.0,1.0
47.96,238.9778,1.0,1.0,1.0
48.0,219.5056,1.0,1.0,1.0
48.04,202.0,1.0,1.0,1.0
48.08,208.5278,1.0,1.0,1.0
48.12,157.9889,1.0,1.0,1.0
48.16,169.4944,1.0,1.0,1.0
48.2,128.5056,1.0,1.0,1.0
48.24,137.4833,1.0,1.0,1.0
48.28,128.4944,1.0,1.0,1.0
48.32,114.4944,1.0,1.0,1.0
48.36,116.4944,1.0,1.0,1.0
48.4,120.4833,1.0,1.0,1.0
48.44,116.4944,1.0,1.0,1.0
48.48,99.0111,1.0,1.0,1.0
48.52,94.5167,1.0,1.0,1.0
48.56,138.0111,1.0,1.0,1.0
48.6,106.0,1.0,1.0,1.0
48.64,86.0111,1.0,1.0,1.0
48.68,77.4944,1.0,1.0,1.0
48.72,94.4944,1.0,1.0,1.0
48.76,94.4944,1.0,1.0,1.0
48.8,49.0,1.0,1.0,1.0
48.84,73.9889,1.0,1.0,1.0
48.88,56.5056,1.0,1.0,1.0
48.92,60.4833,1.0,1.0,1.0
48.96,77.5056,1.0,1.0,1.0
49.0,69.0111,1.0,1.0,1.0
49.04,75.5056,1.0,1.0,1.0
49.08,57.0111,1.0,1.0,1.0
49.12,56.0,1.0,1.0,1.0
49.16,48.4944,1.0,1.0,1.0
49.2,41.4833,1.0,1.0,1.0
49.24,57.0,1.0,1.0,1.0
49.28,69.5056,1.0,1.0,1.0
49.32,52.0,1.0,1.0,1.0
49.36,45.5056,1.0,1.0,1.0
49.4,41.4944,1.0,1.0,1.0
49.44,51.5056,1.0,1.0,1.0
49.48,43.0,1.0,1.0,1.0
49.52,56.0111,1.0,1.0,1.0
49.56,56.0,1.0,1.0,1.0
49.6,43.4944,1.0,1.0,1.0
49.64,41.0,1.0,1.0,1.0
49.68,46.0111,1.0,1.0,1.0
49.72,45.5056,1.0,1.0,1.0
49.76,32.4944,1.0,1.0,1.0
49.8,40.5056,1.0,1.0,1.0
49.84,48.5056,1.0,1.0,1.0
49.88,49.4944,1.0,1.0,1.0
49.92,35.5056,1.0,1.0,1.0
49.96,30.5056,1.0,1.0,1.0
50.0,41.0,1.0,1.0,1.0
50.04,44.0,1.0,1.0,1.0
50.08,41.0,1.0,1.0,1.0
50.12,44.0111,1.0,1.0,1.0
50.16,39.0,1.0,1.0,1.0
50.2,53.4833,1.0,1.0,1.0
50.24,36.0,1.0,1.0,1.0
50.28,43.4944,1.0,1.0,1.0
50.32,58.4833,1.0,1.0,1.0
50.36,26.5056,1.0,1.0,1.0
50.4,36.5056,1.0,1.0,1.0
50.44,36.5056,1.0,1.0,1.0
50.48,48.4944,1.0,1.0,1.0
50.52,33.5056,1.0,1.0,1.0
50.56,35.4944,1.0,1.0,1.0
50.6,34.0,1.0,1.0,1.0
50.64,36.4944,1.0,1.0,1.0
50.68,52.5056,1.0,1.0,1.0
50.72,32.0111,1.0,1.0,1.0
50.76,48.5056,1.0,1.0,1.0
50.8,43.0,1.0,1.0,1.0
50.84,38.4944,1.0,1.0,1.0
50.88,38.0,1.0,1.0,1.0
50.92,26.9889,1.0,1.0,1.0
50.96,49.0,1.0,1.0,1.0
51.0,36.0,1.0,1.0,1.0
51.04,39.0,1.0,1.0,1.0
51.08,40.5056,1.0,1.0,1.0
51.12,42.0111,1.0,1.0,1.0
51.16,41.0111,1.0,1.0,1.0
51.2,49.0,1.0,1.0,1.0
51.24,36.5056,1.0,1.0,1.0
51.28,38.9889,1.0,1.0,1.0
51.32,29.4944,1.0,1.0,1.0
51.36,30.4944,1.0,1.0,1.0
51.4,41.9889,1.0,1.0,1.0
51.44,45.5056,1.0,1.0,1.0
51.48,38.0,1.0,1.0,1.0
51.52,23.9889,1.0,1.0,1.0
51.56,41.5056,1.0,1.0,1.0
51.6,29.9889,1.0,1.0,1.0
51.64,32.0,1.0,1.0,1.0
51.68,39.0,1.0,1.0,1.0
51.72,32.9889,1.0,1.0,1.0
51.76,40.4944,1.0,1.0,1.0
51.8,47.0,1.0,1.0,1.0
51.84,42.0,1.0,1.0,1.0
51.88,30.5056,1.0,1.0,1.0
51.92,40.9889,1.0,1.0,1.0
51.96,30.4944,1.0,1.0,1.0
52.0,21.9889,1.0,1.0,1.0