File: XRD:XRR/RIXS 214/M12/M12f_L2NOT_200_XRD.csv
#twotheta, yobs, ycal, bkg, diff
42.0,195.4944,1.0,1.0,1.0
42.04,245.5056,1.0,1.0,1.0
42.08,358.0,1.0,1.0,1.0
42.12,567.5278,1.0,1.0,1.0
42.16,688.4944,1.0,1.0,1.0
42.2,1027.53,1.0,1.0,1.0
42.24,1265.02,1.0,1.0,1.0
42.28,1626.42,1.0,1.0,1.0
42.32,1993.92,1.0,1.0,1.0
42.36,2510.47,1.0,1.0,1.0
42.4,2918.02,1.0,1.0,1.0
42.44,3439.48,1.0,1.0,1.0
42.48,4009.43,1.0,1.0,1.0
42.52,4595.43,1.0,1.0,1.0
42.56,5220.9,1.0,1.0,1.0
42.6,5764.99,1.0,1.0,1.0
42.64,6100.34,1.0,1.0,1.0
42.68,6739.06,1.0,1.0,1.0
42.72,7001.439,1.0,1.0,1.0
42.76,7622.49,1.0,1.0,1.0
42.8,7783.92,1.0,1.0,1.0
42.84,8057.89,1.0,1.0,1.0
42.88,8256.38,1.0,1.0,1.0
42.92,8287.99,1.0,1.0,1.0
42.96,8166.42,1.0,1.0,1.0
43.0,7896.978,1.0,1.0,1.0
43.04,7756.12,1.0,1.0,1.0
43.08,7445.64,1.0,1.0,1.0
43.12,6988.54,1.0,1.0,1.0
43.16,6408.1,1.0,1.0,1.0
43.2,5854.09,1.0,1.0,1.0
43.24,5446.91,1.0,1.0,1.0
43.28,4753.94,1.0,1.0,1.0
43.32,4081.0,1.0,1.0,1.0
43.36,3518.07,1.0,1.0,1.0
43.4,2939.03,1.0,1.0,1.0
43.44,2472.62,1.0,1.0,1.0
43.48,1859.439,1.0,1.0,1.0
43.52,1498.55,1.0,1.0,1.0
43.56,1166.51,1.0,1.0,1.0
43.6,847.5167,1.0,1.0,1.0
43.64,660.4833,1.0,1.0,1.0
43.68,482.4611,1.0,1.0,1.0
43.72,424.4944,1.0,1.0,1.0
43.76,345.0,1.0,1.0,1.0
43.8,370.5056,1.0,1.0,1.0
43.84,496.0444,1.0,1.0,1.0
43.88,515.9889,1.0,1.0,1.0
43.92,590.9889,1.0,1.0,1.0
43.96,693.4833,1.0,1.0,1.0
44.0,776.5389,1.0,1.0,1.0
44.04,855.9778,1.0,1.0,1.0
44.08,899.0555,1.0,1.0,1.0
44.12,890.4278,1.0,1.0,1.0
44.16,968.4611,1.0,1.0,1.0
44.2,920.9778,1.0,1.0,1.0
44.24,847.0,1.0,1.0,1.0
44.28,817.4833,1.0,1.0,1.0
44.32,745.0111,1.0,1.0,1.0
44.36,655.5389,1.0,1.0,1.0
44.4,613.9778,1.0,1.0,1.0
44.44,508.9556,1.0,1.0,1.0
44.48,466.5167,1.0,1.0,1.0
44.52,374.9445,1.0,1.0,1.0
44.56,280.4833,1.0,1.0,1.0
44.6,288.4833,1.0,1.0,1.0
44.64,280.4833,1.0,1.0,1.0
44.68,300.9889,1.0,1.0,1.0
44.72,331.5056,1.0,1.0,1.0
44.76,339.4944,1.0,1.0,1.0
44.8,388.5167,1.0,1.0,1.0
44.84,435.5056,1.0,1.0,1.0
44.88,528.5056,1.0,1.0,1.0
44.92,506.4833,1.0,1.0,1.0
44.96,625.4722,1.0,1.0,1.0
45.0,540.4944,1.0,1.0,1.0
45.04,628.0,1.0,1.0,1.0
45.08,673.5611,1.0,1.0,1.0
45.12,727.4833,1.0,1.0,1.0
45.16,667.5167,1.0,1.0,1.0
45.2,637.4944,1.0,1.0,1.0
45.24,586.4944,1.0,1.0,1.0
45.28,572.4722,1.0,1.0,1.0
45.32,581.4833,1.0,1.0,1.0
45.36,544.9778,1.0,1.0,1.0
45.4,550.0,1.0,1.0,1.0
45.44,585.45,1.0,1.0,1.0
45.48,547.4833,1.0,1.0,1.0
45.52,521.5167,1.0,1.0,1.0
45.56,647.0333,1.0,1.0,1.0
45.6,638.9778,1.0,1.0,1.0
45.64,697.4611,1.0,1.0,1.0
45.68,814.0333,1.0,1.0,1.0
45.72,884.0222,1.0,1.0,1.0
45.76,960.0,1.0,1.0,1.0
45.8,1074.47,1.0,1.0,1.0
45.84,1140.98,1.0,1.0,1.0
45.88,1328.96,1.0,1.0,1.0
45.92,1481.03,1.0,1.0,1.0
45.96,1635.03,1.0,1.0,1.0
46.0,1868.37,1.0,1.0,1.0
46.04,2100.07,1.0,1.0,1.0
46.08,2418.96,1.0,1.0,1.0
46.12,2679.42,1.0,1.0,1.0
46.16,3178.93,1.0,1.0,1.0
46.2,4033.43,1.0,1.0,1.0
46.24,4977.43,1.0,1.0,1.0
46.28,7139.33,1.0,1.0,1.0
46.32,11151.4,1.0,1.0,1.0
46.36,24341.3,1.0,1.0,1.0
46.4,121256,1.0,1.0,1.0
46.44,567013.75,1.0,1.0,1.0
46.48,3490758.0,1.0,1.0,1.0
46.52,22197048.0,1.0,1.0,1.0
46.56,408053.875,1.0,1.0,1.0
46.6,44963.5,1.0,1.0,1.0
46.64,16077.4,1.0,1.0,1.0
46.68,8369.74,1.0,1.0,1.0
46.72,5193.45,1.0,1.0,1.0
46.76,3342.53,1.0,1.0,1.0
46.8,2333.48,1.0,1.0,1.0
46.84,1765.51,1.0,1.0,1.0
46.88,1384.96,1.0,1.0,1.0
46.92,1065.52,1.0,1.0,1.0
46.96,830.45,1.0,1.0,1.0
47.0,705.5167,1.0,1.0,1.0
47.04,552.0,1.0,1.0,1.0
47.08,499.4833,1.0,1.0,1.0
47.12,386.9667,1.0,1.0,1.0
47.16,367.0,1.0,1.0,1.0
47.2,326.0222,1.0,1.0,1.0
47.24,295.4944,1.0,1.0,1.0
47.28,258.0,1.0,1.0,1.0
47.32,253.5278,1.0,1.0,1.0
47.36,176.0222,1.0,1.0,1.0
47.4,155.0111,1.0,1.0,1.0
47.44,154.9889,1.0,1.0,1.0
47.48,140.5167,1.0,1.0,1.0
47.52,113.9889,1.0,1.0,1.0
47.56,83.5056,1.0,1.0,1.0
47.6,63.9778,1.0,1.0,1.0
47.64,79.9889,1.0,1.0,1.0
47.68,58.0,1.0,1.0,1.0
47.72,36.0,1.0,1.0,1.0
47.76,68.5056,1.0,1.0,1.0
47.8,43.0,1.0,1.0,1.0
47.84,38.0,1.0,1.0,1.0
47.88,33.5167,1.0,1.0,1.0
47.92,39.5056,1.0,1.0,1.0
47.96,49.4944,1.0,1.0,1.0
48.0,18.5056,1.0,1.0,1.0
48.04,24.0,1.0,1.0,1.0
48.08,26.0,1.0,1.0,1.0
48.12,29.0,1.0,1.0,1.0
48.16,30.0,1.0,1.0,1.0
48.2,16.0,1.0,1.0,1.0
48.24,17.4944,1.0,1.0,1.0
48.28,21.5056,1.0,1.0,1.0
48.32,13.0,1.0,1.0,1.0
48.36,30.0,1.0,1.0,1.0
48.4,10.9889,1.0,1.0,1.0
48.44,13.0,1.0,1.0,1.0
48.48,10.5056,1.0,1.0,1.0
48.52,13.4944,1.0,1.0,1.0
48.56,14.0,1.0,1.0,1.0
48.6,10.0,1.0,1.0,1.0
48.64,7.0,1.0,1.0,1.0
48.68,11.0,1.0,1.0,1.0
48.72,4.4944,1.0,1.0,1.0
48.76,6.0,1.0,1.0,1.0
48.8,1.4944,1.0,1.0,1.0
48.84,13.4944,1.0,1.0,1.0
48.88,6.0,1.0,1.0,1.0
48.92,14.5056,1.0,1.0,1.0
48.96,5.5056,1.0,1.0,1.0
49.0,13.0,1.0,1.0,1.0
49.04,9.4944,1.0,1.0,1.0
49.08,9.0,1.0,1.0,1.0
49.12,9.0,1.0,1.0,1.0
49.16,17.0,1.0,1.0,1.0
49.2,1.0111,1.0,1.0,1.0
49.24,17.0,1.0,1.0,1.0
49.28,12.0,1.0,1.0,1.0
49.32,5.4944,1.0,1.0,1.0
49.36,12.5056,1.0,1.0,1.0
49.4,8.0,1.0,1.0,1.0
49.44,9.9889,1.0,1.0,1.0
49.48,21.0,1.0,1.0,1.0
49.52,8.4944,1.0,1.0,1.0
49.56,12.0,1.0,1.0,1.0
49.6,5.0,1.0,1.0,1.0
49.64,4.0,1.0,1.0,1.0
49.68,5.0,1.0,1.0,1.0
49.72,2.0,1.0,1.0,1.0
49.76,4.0,1.0,1.0,1.0
49.8,4.0,1.0,1.0,1.0
49.84,7.0,1.0,1.0,1.0
49.88,11.0,1.0,1.0,1.0
49.92,0.0,1.0,1.0,1.0
49.96,5.0,1.0,1.0,1.0
50.0,0.0,1.0,1.0,1.0
50.04,5.0,1.0,1.0,1.0
50.08,14.0,1.0,1.0,1.0
50.12,2.0,1.0,1.0,1.0
50.16,2.0,1.0,1.0,1.0
50.2,12.4944,1.0,1.0,1.0
50.24,6.0,1.0,1.0,1.0
50.28,8.0,1.0,1.0,1.0
50.32,3.0,1.0,1.0,1.0
50.36,4.0,1.0,1.0,1.0
50.4,5.0,1.0,1.0,1.0
50.44,5.0,1.0,1.0,1.0
50.48,2.4944,1.0,1.0,1.0
50.52,8.0,1.0,1.0,1.0
50.56,10.5056,1.0,1.0,1.0
50.6,8.0,1.0,1.0,1.0
50.64,5.0,1.0,1.0,1.0
50.68,2.0,1.0,1.0,1.0
50.72,9.0,1.0,1.0,1.0
50.76,7.0,1.0,1.0,1.0
50.8,3.0,1.0,1.0,1.0
50.84,3.0,1.0,1.0,1.0
50.88,0.0,1.0,1.0,1.0
50.92,2.0,1.0,1.0,1.0
50.96,4.0,1.0,1.0,1.0
51.0,12.0,1.0,1.0,1.0
51.04,1.0,1.0,1.0,1.0
51.08,10.0,1.0,1.0,1.0
51.12,6.4944,1.0,1.0,1.0
51.16,2.0,1.0,1.0,1.0
51.2,8.0,1.0,1.0,1.0
51.24,2.0,1.0,1.0,1.0
51.28,3.0,1.0,1.0,1.0
51.32,6.0,1.0,1.0,1.0
51.36,7.4944,1.0,1.0,1.0
51.4,2.0,1.0,1.0,1.0
51.44,0.0,1.0,1.0,1.0
51.48,4.0,1.0,1.0,1.0
51.52,7.0,1.0,1.0,1.0
51.56,3.4944,1.0,1.0,1.0
51.6,13.0,1.0,1.0,1.0
51.64,2.0,1.0,1.0,1.0
51.68,12.5056,1.0,1.0,1.0
51.72,7.0,1.0,1.0,1.0
51.76,5.4944,1.0,1.0,1.0
51.8,7.0,1.0,1.0,1.0
51.84,10.0,1.0,1.0,1.0
51.88,3.0,1.0,1.0,1.0
51.92,6.0,1.0,1.0,1.0
51.96,7.0,1.0,1.0,1.0
52.0,9.0,1.0,1.0,1.0