File: XRD:XRR/LCO/22152_LCOL/22152_LCOL_XRD.csv
#twotheta, yobs, ycal, bkg, diff
42.0,46.5056,1.0,1.0,1.0
42.05,33.9889,1.0,1.0,1.0
42.1,43.0,1.0,1.0,1.0
42.15,38.4944,1.0,1.0,1.0
42.2,43.0,1.0,1.0,1.0
42.25,26.5056,1.0,1.0,1.0
42.3,24.0,1.0,1.0,1.0
42.35,36.5056,1.0,1.0,1.0
42.4,33.5056,1.0,1.0,1.0
42.45,24.0,1.0,1.0,1.0
42.5,7.0,1.0,1.0,1.0
42.55,9.0,1.0,1.0,1.0
42.6,27.5056,1.0,1.0,1.0
42.65,15.0,1.0,1.0,1.0
42.7,20.0,1.0,1.0,1.0
42.75,27.4944,1.0,1.0,1.0
42.8,26.5056,1.0,1.0,1.0
42.85,24.0,1.0,1.0,1.0
42.9,32.5056,1.0,1.0,1.0
42.95,37.5056,1.0,1.0,1.0
43.0,29.4944,1.0,1.0,1.0
43.05,57.5056,1.0,1.0,1.0
43.1,55.0111,1.0,1.0,1.0
43.15,70.0,1.0,1.0,1.0
43.2,80.4944,1.0,1.0,1.0
43.25,65.0111,1.0,1.0,1.0
43.3,74.0111,1.0,1.0,1.0
43.35,81.0222,1.0,1.0,1.0
43.4,86.0,1.0,1.0,1.0
43.45,72.9889,1.0,1.0,1.0
43.5,77.4944,1.0,1.0,1.0
43.55,76.0,1.0,1.0,1.0
43.6,86.5056,1.0,1.0,1.0
43.65,107.5167,1.0,1.0,1.0
43.7,96.5056,1.0,1.0,1.0
43.75,82.4833,1.0,1.0,1.0
43.8,90.0,1.0,1.0,1.0
43.85,53.9889,1.0,1.0,1.0
43.9,61.4944,1.0,1.0,1.0
43.95,65.4944,1.0,1.0,1.0
44.0,62.0111,1.0,1.0,1.0
44.05,55.4944,1.0,1.0,1.0
44.1,53.0,1.0,1.0,1.0
44.15,43.4944,1.0,1.0,1.0
44.2,20.4944,1.0,1.0,1.0
44.25,18.4944,1.0,1.0,1.0
44.3,27.4944,1.0,1.0,1.0
44.35,50.5056,1.0,1.0,1.0
44.4,53.0,1.0,1.0,1.0
44.45,65.4833,1.0,1.0,1.0
44.5,91.4944,1.0,1.0,1.0
44.55,130.4833,1.0,1.0,1.0
44.6,157.4944,1.0,1.0,1.0
44.65,189.0222,1.0,1.0,1.0
44.7,240.5278,1.0,1.0,1.0
44.75,322.4722,1.0,1.0,1.0
44.8,411.4833,1.0,1.0,1.0
44.85,461.9667,1.0,1.0,1.0
44.9,564.4389,1.0,1.0,1.0
44.95,654.5278,1.0,1.0,1.0
45.0,732.45,1.0,1.0,1.0
45.05,845.0333,1.0,1.0,1.0
45.1,944.9445,1.0,1.0,1.0
45.15,1038.01,1.0,1.0,1.0
45.2,1198.99,1.0,1.0,1.0
45.25,1289.45,1.0,1.0,1.0
45.3,1408.53,1.0,1.0,1.0
45.35,1559.02,1.0,1.0,1.0
45.4,1778.97,1.0,1.0,1.0
45.45,1878.46,1.0,1.0,1.0
45.5,1929.48,1.0,1.0,1.0
45.55,2046.0,1.0,1.0,1.0
45.6,2137.37,1.0,1.0,1.0
45.65,2295.98,1.0,1.0,1.0
45.7,2494.57,1.0,1.0,1.0
45.75,2460.88,1.0,1.0,1.0
45.8,2550.01,1.0,1.0,1.0
45.85,2547.53,1.0,1.0,1.0
45.9,2628.47,1.0,1.0,1.0
45.95,2693.94,1.0,1.0,1.0
46.0,2861.1,1.0,1.0,1.0
46.05,2906.53,1.0,1.0,1.0
46.1,2704.89,1.0,1.0,1.0
46.15,2825.97,1.0,1.0,1.0
46.2,2690.96,1.0,1.0,1.0
46.25,2557.01,1.0,1.0,1.0
46.3,2195.02,1.0,1.0,1.0
46.35,2186.93,1.0,1.0,1.0
46.4,2078.07,1.0,1.0,1.0
46.45,1955.96,1.0,1.0,1.0
46.5,1997.03,1.0,1.0,1.0
46.55,1858.99,1.0,1.0,1.0
46.6,1744.58,1.0,1.0,1.0
46.65,1626.55,1.0,1.0,1.0
46.7,1589.52,1.0,1.0,1.0
46.75,1439.03,1.0,1.0,1.0
46.8,1308.97,1.0,1.0,1.0
46.85,1139.47,1.0,1.0,1.0
46.9,1082.53,1.0,1.0,1.0
46.95,989.0889,1.0,1.0,1.0
47.0,938.4389,1.0,1.0,1.0
47.05,818.5167,1.0,1.0,1.0
47.1,731.4722,1.0,1.0,1.0
47.15,654.5278,1.0,1.0,1.0
47.2,496.5056,1.0,1.0,1.0
47.25,562.4944,1.0,1.0,1.0
47.3,476.5056,1.0,1.0,1.0
47.35,493.9667,1.0,1.0,1.0
47.4,530.55,1.0,1.0,1.0
47.45,505.0,1.0,1.0,1.0
47.5,562.5167,1.0,1.0,1.0
47.55,725.4944,1.0,1.0,1.0
47.6,821.4944,1.0,1.0,1.0
47.65,1185.98,1.0,1.0,1.0
47.7,1485.03,1.0,1.0,1.0
47.75,2081.57,1.0,1.0,1.0
47.8,3324.42,1.0,1.0,1.0
47.85,5993.39,1.0,1.0,1.0
47.9,13687.2,1.0,1.0,1.0
47.95,48904.9,1.0,1.0,1.0
48.0,5836421.0,1.0,1.0,1.0
48.05,1156670.0,1.0,1.0,1.0
48.1,29059.3,1.0,1.0,1.0
48.15,6845.33,1.0,1.0,1.0
48.2,3142.57,1.0,1.0,1.0
48.25,1753.06,1.0,1.0,1.0
48.3,1077.98,1.0,1.0,1.0
48.35,721.55,1.0,1.0,1.0
48.4,487.4722,1.0,1.0,1.0
48.45,396.4944,1.0,1.0,1.0
48.5,293.5056,1.0,1.0,1.0
48.55,239.9889,1.0,1.0,1.0
48.6,206.9778,1.0,1.0,1.0
48.65,180.5056,1.0,1.0,1.0
48.7,149.9889,1.0,1.0,1.0
48.75,164.5056,1.0,1.0,1.0
48.8,134.4833,1.0,1.0,1.0
48.85,147.9778,1.0,1.0,1.0
48.9,109.0111,1.0,1.0,1.0
48.95,115.4833,1.0,1.0,1.0
49.0,110.5056,1.0,1.0,1.0
49.05,93.0,1.0,1.0,1.0
49.1,113.0222,1.0,1.0,1.0
49.15,57.0,1.0,1.0,1.0
49.2,71.5056,1.0,1.0,1.0
49.25,55.0,1.0,1.0,1.0
49.3,71.9889,1.0,1.0,1.0
49.35,39.5056,1.0,1.0,1.0
49.4,46.0,1.0,1.0,1.0
49.45,38.0,1.0,1.0,1.0
49.5,53.0111,1.0,1.0,1.0
49.55,29.0,1.0,1.0,1.0
49.6,30.0,1.0,1.0,1.0
49.65,17.0,1.0,1.0,1.0
49.7,17.9889,1.0,1.0,1.0
49.75,10.0,1.0,1.0,1.0
49.8,18.0,1.0,1.0,1.0
49.85,8.4944,1.0,1.0,1.0
49.9,8.0,1.0,1.0,1.0
49.95,4.0,1.0,1.0,1.0
50.0,9.4944,1.0,1.0,1.0
50.05,5.0,1.0,1.0,1.0
50.1,16.0,1.0,1.0,1.0
50.15,2.0,1.0,1.0,1.0
50.2,5.0,1.0,1.0,1.0
50.25,10.0,1.0,1.0,1.0
50.3,7.0,1.0,1.0,1.0
50.35,21.0,1.0,1.0,1.0
50.4,13.0,1.0,1.0,1.0
50.45,13.4944,1.0,1.0,1.0
50.5,16.0,1.0,1.0,1.0
50.55,7.0,1.0,1.0,1.0
50.6,12.0,1.0,1.0,1.0
50.65,23.9889,1.0,1.0,1.0
50.7,14.9889,1.0,1.0,1.0
50.75,5.0,1.0,1.0,1.0
50.8,16.4944,1.0,1.0,1.0
50.85,12.5056,1.0,1.0,1.0
50.9,24.0,1.0,1.0,1.0
50.95,6.4944,1.0,1.0,1.0
51.0,16.0,1.0,1.0,1.0
51.05,9.0,1.0,1.0,1.0
51.1,2.0,1.0,1.0,1.0
51.15,0.0,1.0,1.0,1.0
51.2,23.0,1.0,1.0,1.0
51.25,14.0,1.0,1.0,1.0
51.3,4.0111,1.0,1.0,1.0
51.35,12.0,1.0,1.0,1.0
51.4,8.0,1.0,1.0,1.0
51.45,5.0,1.0,1.0,1.0
51.5,5.5056,1.0,1.0,1.0
51.55,2.0,1.0,1.0,1.0
51.6,3.0,1.0,1.0,1.0
51.65,7.0,1.0,1.0,1.0
51.7,9.0,1.0,1.0,1.0
51.75,7.0,1.0,1.0,1.0
51.8,9.0,1.0,1.0,1.0
51.85,7.0,1.0,1.0,1.0
51.9,8.4944,1.0,1.0,1.0
51.95,11.0,1.0,1.0,1.0
52.0,2.0,1.0,1.0,1.0
0.44,2343025.5,1.0,1.0,1.0
0.49,2515435.5,1.0,1.0,1.0
0.54,2636493.0,1.0,1.0,1.0
0.59,2637632.0,1.0,1.0,1.0
0.64,2428208.0,1.0,1.0,1.0
0.69,1942484.625,1.0,1.0,1.0
0.74,1338702.125,1.0,1.0,1.0
0.79,842376.625,1.0,1.0,1.0
0.84,540621,1.0,1.0,1.0
0.89,378859,1.0,1.0,1.0
0.94,278664.0,1.0,1.0,1.0
0.99,211834.5,1.0,1.0,1.0
1.04,164467.5,1.0,1.0,1.0
1.09,129249,1.0,1.0,1.0
1.14,102418.0,1.0,1.0,1.0
1.19,82086,1.0,1.0,1.0
1.24,65547,1.0,1.0,1.0
1.29,52720.5,1.0,1.0,1.0
1.34,42715,1.0,1.0,1.0
1.39,34377.5,1.0,1.0,1.0
1.44,28221.502,1.0,1.0,1.0
1.49,22929.5,1.0,1.0,1.0
1.54,18880.502,1.0,1.0,1.0
1.59,15752.001,1.0,1.0,1.0
1.64,13090.0,1.0,1.0,1.0
1.69,11324.5,1.0,1.0,1.0
1.74,9463.501,1.0,1.0,1.0
1.79,8492.499,1.0,1.0,1.0
1.84,7385,1.0,1.0,1.0
1.89,6640.0,1.0,1.0,1.0
1.94,6178.001,1.0,1.0,1.0
1.99,5893.5,1.0,1.0,1.0
2.04,5383.0,1.0,1.0,1.0
2.09,5064.501,1.0,1.0,1.0
2.14,4811.501,1.0,1.0,1.0
2.19,4452,1.0,1.0,1.0
2.24,4109.5,1.0,1.0,1.0
2.29,3921.001,1.0,1.0,1.0
2.34,3791.5,1.0,1.0,1.0
2.39,3581,1.0,1.0,1.0
2.44,3355.5,1.0,1.0,1.0
2.49,3112.5,1.0,1.0,1.0
2.54,2909,1.0,1.0,1.0
2.59,2701.5,1.0,1.0,1.0
2.64,2680.5,1.0,1.0,1.0
2.69,2441,1.0,1.0,1.0
2.74,2221.0,1.0,1.0,1.0
2.79,2096.5,1.0,1.0,1.0
2.84,1935,1.0,1.0,1.0
2.89,1803.5,1.0,1.0,1.0
2.94,1650,1.0,1.0,1.0
2.99,1630,1.0,1.0,1.0
3.04,1526,1.0,1.0,1.0
3.09,1458,1.0,1.0,1.0
3.14,1345,1.0,1.0,1.0
3.19,1324,1.0,1.0,1.0
3.24,1232.5,1.0,1.0,1.0
3.29,1162,1.0,1.0,1.0
3.34,1162,1.0,1.0,1.0
3.39,1130,1.0,1.0,1.0
3.44,1167,1.0,1.0,1.0
3.49,1084,1.0,1.0,1.0
3.54,1038,1.0,1.0,1.0
3.59,1074.5,1.0,1.0,1.0
3.64,1053,1.0,1.0,1.0
3.69,1048.5,1.0,1.0,1.0
3.74,1031,1.0,1.0,1.0
3.79,936.0002,1.0,1.0,1.0
3.84,987.5002,1.0,1.0,1.0
3.89,961.4998,1.0,1.0,1.0
3.94,922.5006,1.0,1.0,1.0
3.99,898.4994,1.0,1.0,1.0
4.04,849.5002,1.0,1.0,1.0
4.09,822.0001,1.0,1.0,1.0
4.14,768.0,1.0,1.0,1.0
4.19,702.5001,1.0,1.0,1.0
4.24,720.5002,1.0,1.0,1.0
4.29,679.4998,1.0,1.0,1.0
4.34,618.4995,1.0,1.0,1.0
4.39,564.5002,1.0,1.0,1.0
4.44,581.9998,1.0,1.0,1.0
4.49,539.5001,1.0,1.0,1.0
4.5,498.5002,1.0,1.0,1.0