File: XRD:XRR/LCO/22152_LCOL/22152_LCOL_XRD_2-Theta_Omega.asc
*TYPE		=  Raw
*CLASS		=  ASCII CLASS
*SAMPLE		=
*COMMENT	=
*FNAME		=  22152_LCOL_XRD_2-Theta_Omega.asc
*DATE		=  17-Oct-22 23:56

*GROUP_COUNT	=  1
*GONIO		=  SmartLab(In-plane), 0.000000
*ATTACHMENT	=  Z-Phi Stage
*ASC		=  0, 0, 0.000000, 0.000000
*I_MONOCHRO	=  Ge(220)x2, 0.000000
*FILTER		=  None
*C_MONOCHRO	=  None, 0.000000
*SLIT_NAME	=  0, Incident slit
*SLIT_NAME	=  1, Receiving slit # 1
*SLIT_NAME	=  2, Receiving slit # 2
*COUNTER	=  D/teX Ultra 250, 0
*POS_FORMAT	=  0
*SCAN_AXIS	=  2Theta/Omega
*MEAS_MODE	=  Continuous Scanning
*TARGET		=  29
*XRAY_CHAR	=  K-ALPHA1
*WAVE_LENGTH1	=  1.54059
*WAVE_LENGTH2	=  1.54441
*THICKNESS	=  0, 0.000000
*MU		=  0, 0.000000
*SCAN_MODE	=  2Theta/Omega
*SPEED_DIM	=  sec./step
*XUNIT		=  deg.
*YUNIT		=  counts
*SCALE_MODE	=  1
*REP_COUNT	=  0
*SE_COUNT	=  0
*STD_MATERIAL	=  Unknown, Unknown, 0.000000, 0.000000, 0.000000, 0.000000, 0.000000, 0.000000
*LATT_CONS	=  0, Unknown, Unknown, 0.000000, 0.000000, 0.000000, 0.000000, 0.000000, 0.000000
*SEC_COUNT	=  2
*TSPEC_SIZE	=  0
*EXTRA_SIZE	=  0
*MEMO		=

*BEGIN
*GROUP		=  0
*START		=  42
*STOP		=  52
*STEP		=  0.01
*OFFSET		=  0.0725
*SPEED		=  22.1803
*SLIT_SPEC	=  0, 0.400mm, 0.4, 0.000000
*SLIT_SPEC	=  1, 0.400mm, 0.4, 0.000000
*SLIT_SPEC	=  2, 0.400mm, 0.4, 0.000000
*KV		=  40
*MA		=  30
*LOW		=  0.000000
*HIGH		=  0.000000
*CTEMPER	=  0, 0.000000
*CTEMPER	=  1, 0.000000
*CTEMPER	=  2, 0.000000
*PAREX		=  0, 0.000000
*PAREX		=  1, 0.000000
*PAREX		=  2, 0.000000
*PAREX		=  3, 0.000000
*PAREX		=  4, 0.000000
*PAREX		=  5, 0.000000
*PAREX		=  6, 0.000000
*PAREX		=  7, 0.000000
*PAREX		=  8, 0.000000
*PAREX		=  9, 0.000000
*PAREX		=  10, 0.000000
*PAREX		=  11, 0.000000
*PAREX		=  12, 0.000000
*PAREX		=  13, 0.000000
*PAREX		=  14, 0.000000
*PAREX		=  15, 0.000000
*FULL_SCALE	=  500657
*INDEX		=  0, 0, 0
*COUNT		=  1001
46.5056, 40, 40.4944, 50
37.5056, 33.9889, 41.5056, 37
27, 50, 43, 48.5056
38.4944, 35.5056, 30, 38.4944
34, 39, 50, 23.5056
43, 42, 28, 26
31.4944, 26.5056, 36, 41.9889
35.0111, 41, 24, 19
32, 47, 26.4944, 36.5056
32.4944, 29.5056, 23.9889, 25.5056
33.5056, 30.4944, 28.5056, 21
26, 24, 15, 32
17.4944, 30.5056, 7, 18
31, 29, 7, 9
21.4944, 24.5056, 18, 13.4944
27.5056, 47.4944, 13.5056, 23.4944
29.5056, 15, 32, 14
13.9889, 18.0111, 20, 18.9889
37.5056, 30.4944, 27.0111, 27.4944
33, 29, 24.5056, 22.4944
26.5056, 28, 18.4944, 25.5056
17, 24, 23, 26.9889
24.0111, 40.9889, 32.5056, 45.5056
37.4944, 29.9889, 51.0111, 37.5056
39, 50, 44.4944, 26.5056
29.4944, 43, 27.5056, 44.4944
51.9889, 57.5056, 53.5056, 56
61.5056, 44.9889, 55.0111, 71
43, 50.9889, 57, 70
51.4944, 64.5056, 60.5056, 85.5056
80.4944, 73.4944, 57.4944, 61.5167
84.9889, 65.0111, 80.9889, 64.5056
84.5056, 80.9889, 74.0111, 67.4833
63.5056, 70.0111, 75.9778, 81.0222
65.9889, 98.5056, 80.4944, 69
86, 97, 93, 77.5056
103, 72.9889, 79.5167, 81.9889
105.506, 85, 77.4944, 116.011
98.4944, 104.483, 86.5167, 76
108.494, 72.0111, 90.9889, 80
86.5056, 108.989, 76.5167, 99.9889
92.9889, 107.517, 85.5056, 95.4833
97.5056, 88.4944, 96.5056, 94.0111
84.9778, 123.022, 77, 82.4833
96.0111, 114.483, 72.5167, 89.4944
90, 88.5056, 85.9889, 72
70.5167, 53.9889, 81.5056, 68.4833
72.0111, 83.0111, 61.4944, 66.9889
68.0111, 70.5056, 52, 65.4944
44, 74.5056, 37, 36.9889
62.0111, 54.4944, 54, 68.4944
40.5056, 55.4944, 54.4944, 55.5167
52, 46.4944, 53, 36
43.5056, 39, 27, 43.4944
29, 34, 45.5056, 40.4944
20.4944, 48.0111, 38.9889, 37.0111
38, 18.4944, 40.5056, 20.4944
44.5056, 39.4944, 27.4944, 65.0111
38, 38, 39.4944, 50.5056
50.4944, 52, 50, 45.5056
53, 80.9778, 65.4944, 65.0222
50.5056, 65.4833, 77.0111, 84.9889
69.0111, 103.506, 91.4944, 107.494
120, 94.5056, 108.506, 130.483
113.989, 155.517, 164.506, 144.989
157.494, 143.494, 185.506, 201.494
190.494, 189.022, 236.494, 197
221.011, 269.967, 240.528, 269.989
281, 292.483, 298.517, 322.472
344.494, 345.011, 369.967, 361.056
411.483, 396, 377.978, 415.989
421.044, 461.967, 507, 476
480.978, 500.55, 564.439, 570.517
601.494, 596.044, 628.472, 654.528
705.933, 620.067, 730.483, 723.989
732.45, 787.517, 835.956, 848.067
797.967, 845.033, 906.472, 887.483
906.506, 938.033, 944.944, 1001.09
1012.97, 995.494, 1063.45, 1038.01
1150.03, 1048.46, 1177.01, 1161.99
1198.99, 1247.98, 1245.49, 1297.04
1340.52, 1289.45, 1307.55, 1312.97
1388.49, 1425.99, 1408.53, 1564.52
1493.45, 1531.99, 1585, 1559.02
1592.52, 1651.48, 1761.45, 1675.01
1778.97, 1731.02, 1778.49, 1741.93
1786.07, 1878.46, 1879.03, 1587.53
1684.99, 1887.52, 1929.48, 1993.93
1996, 2086.53, 2058, 2046
2165, 2029.03, 2152.9, 2164.13
2137.37, 2236.57, 2245.99, 2297.47
2297.99, 2295.98, 2289.03, 2433.54
2385.92, 2395.49, 2494.57, 2509.97
2457.88, 2563.61, 2495.02, 2460.88
2473.17, 2530.44, 2562.49, 2571
2550.01, 2635.94, 2560.08, 2583.53
2618.36, 2547.53, 2658.55, 2615.01
2648, 2591, 2628.47, 2650.99
2724.61, 2704.39, 2706.58, 2693.94
2798.06, 2733.98, 2696.91, 2692
2861.1, 2778.93, 2783.03, 2657.46
2677.51, 2906.53, 2675.41, 2780.55
2712.51, 2679.08, 2704.89, 2807.07
2664.53, 2710.07, 2634.9, 2825.97
2651.52, 2720.52, 2735.43, 2646.61
2690.96, 2716.06, 2629.97, 2639.96
2642.03, 2557.01, 2598.48, 2564.02
2555.42, 2156.1, 2195.02, 2252.53
2184.52, 2130.51, 2231, 2186.93
2120.57, 2105.99, 2033.51, 2086.38
2078.07, 2095.53, 2055.51, 2102.97
2034.56, 1955.96, 2001.55, 2000.45
2008.41, 1976.08, 1997.03, 1917.96
1902.52, 1844.49, 1840.56, 1858.99
1807.51, 1779.03, 1746.43, 1866.45
1744.58, 1716.48, 1683.03, 1702.99
1703.98, 1626.55, 1594.96, 1552.07
1571.49, 1632.47, 1589.52, 1499
1472.49, 1483.96, 1430.53, 1439.03
1463.01, 1385.97, 1309.53, 1346.01
1308.97, 1298.01, 1227.52, 1331.99
1235.02, 1139.47, 1138.51, 1127
1090.56, 1126.93, 1082.53, 1084.51
1107.01, 976.45, 980.022, 989.089
958.978, 970.483, 969.439, 937.078
938.439, 857.572, 842.967, 847.494
818.517, 818.517, 761.978, 795.011
736.494, 702.022, 731.472, 711
721.011, 673.528, 652.956, 654.528
630.494, 612.506, 615.517, 580.989
496.506, 592.944, 537.55, 563.978
588.033, 562.494, 509.472, 542.022
542.483, 480.494, 476.506, 497.528
473.989, 499.011, 462.011, 493.967
477.978, 510.022, 470.472, 472.494
530.55, 506, 496.494, 535.472
537, 505, 538.528, 527.967
538.044, 568.472, 562.517, 610.517
628.967, 692.989, 618.506, 725.494
738.506, 775, 715.472, 807
821.494, 954.989, 923.572, 938.933
1015.51, 1185.98, 1147.96, 1228.02
1309.02, 1377.96, 1485.03, 1576.47
1713.51, 1838.45, 2049.99, 2081.57
2346.87, 2477.96, 2738.09, 3030.91
3324.42, 3659.02, 4197.35, 4562.99
5162.04, 5993.39, 6901.8, 8199.33
9561.91, 11321.1, 13687.2, 16786.3
21007.7, 27413.2, 35799.5, 48904.9
71473.4, 118337, 313164, 1740441.6
5836421, 8941697, 6644287, 2985384
1788807.6, 1156670, 665215, 314722
130671, 58397.1, 29059.3, 17815.5
13187.2, 10168.3, 8238.71, 6845.33
5639.53, 4846.61, 4120.54, 3581.02
3142.57, 2765.49, 2434.06, 2148.54
1953.52, 1753.06, 1630.43, 1509.57
1374.03, 1195.49, 1077.98, 1008.55
982.506, 874, 746.978, 721.55
704, 645.506, 573, 526.022
487.472, 507.506, 446.528, 425.989
435.494, 396.494, 367.022, 327.989
306.022, 341.989, 293.506, 285
302.506, 259.989, 254.517, 239.989
199.506, 241.517, 210.978, 178.011
206.978, 167.528, 174.494, 185.494
191.506, 180.506, 150.483, 182.022
141, 173.506, 149.989, 160
126.989, 133, 126, 164.506
127, 150.011, 121.989, 111.011
134.483, 127.517, 124.483, 106.506
124.517, 147.978, 98, 109.022
111.472, 115.517, 109.011, 109.989
118.989, 101.506, 79.5167, 115.483
105.506, 111.483, 118.022, 92.4944
110.506, 101.506, 73.4833, 115.506
95, 93, 100.989, 99.5056
96.0111, 92.9778, 113.022, 72.4944
84, 89, 98.0111, 57
71.9889, 96.9889, 84.5167, 92.4944
71.5056, 65.5056, 63.4944, 58.5056
46.4944, 55, 66.4944, 49
82.4944, 75.0111, 71.9889, 50.5056
32, 68, 49.5056, 39.5056
55.4944, 42.5056, 48.4944, 49.5056
46, 33.4944, 45, 43.5056
52.4944, 38, 43.5056, 36.4833
30.0111, 36.4944, 53.0111, 29
27.4944, 27.5056, 31.9889, 29
48.5056, 24.4944, 27.0111, 35
30, 25, 42.4944, 23.5056
36, 17, 17.4944, 26
25, 11.5056, 17.9889, 19.0111
27, 16, 9, 10
11, 23, 10, 18.4944
18, 10.5056, 9, 8
15, 8.49445, 15.5056, 8
12, 7, 8, 6
9, 12, 6, 4
14, 4, 11.4944, 4.50555
9.49445, 10.5056, 8, 16
7, 5, 2, 7
7, 2, 16, 10
12, 11, 12, 2
10, 13.4944, 8.50555, 5
5, 5, 6, 6
10, 10, 11.4944, 12.5056
18, 13, 7, 4
14, 16.9889, 7.01111, 21
10, 11, 2, 15
13, 4.49445, 7.50555, 6
11, 13.4944, 6.50555, 15
18, 7, 16, 3
10.4944, 11.5056, 5, 7
9, 10, 15.4944, 10.5056
12, 15, 10.4944, 11.5056
10, 23.9889, 17.0111, 12
14, 8, 14.9889, 9.01111
3.49445, 12.5056, 19, 5
11, 0.000000, 9, 8
16.4944, 12, 13.5056, 4
10.9889, 12.5056, 12, 9.50555
2, 11.4944, 24, 17
16.5056, 5, 11, 6.49445
12, 15.5056, 3, 6
16, 14, 1.49445, 8.50555
17.4944, 9, 8.50555, 3.49445
4.50555, 8, 2, 7.49445
9.50555, 7, 17, 0.000000
7, 14, 5.49445, 8.50555
23, 5, 9, 17
9, 14, 5, 2
9, 8.98889, 4.01111, 7
7, 9, 10, 12
2, 12, 5, 13
8, 2, 4, 9
13, 5, 5, 9
12, 11.4944, 5.50555, 0.000000
6, 18, 2, 2
8, 6, 9, 15
3, 7.49445, 7.50555, 2
7, 7, 8, 5
2, 7, 9, 8
5, 7, 5, 7
9.49445, 6.50555, 9, 9
9, 3, 3, 25
6, 7, 9, 2
0.000000, 10, 8.49445, 7.50555
8, 7, 3, 11
0.000000, 2, 6, 9
2
*END

*BEGIN
*GROUP		=  0
*START		=  0.4
*STOP		=  4.5
*STEP		=  0.01
*OFFSET		=  0.0725
*SPEED		=  20.6484
*SLIT_SPEC	=  0, 1.000mm, 1, 0.000000
*SLIT_SPEC	=  1, 1.000mm, 1, 0.000000
*SLIT_SPEC	=  2, 1.000mm, 1, 0.000000
*KV		=  40
*MA		=  30
*LOW		=  0.000000
*HIGH		=  0.000000
*CTEMPER	=  0, 0.000000
*CTEMPER	=  1, 0.000000
*CTEMPER	=  2, 0.000000
*PAREX		=  0, 0.000000
*PAREX		=  1, 0.000000
*PAREX		=  2, 0.000000
*PAREX		=  3, 0.000000
*PAREX		=  4, 0.000000
*PAREX		=  5, 0.000000
*PAREX		=  6, 0.000000
*PAREX		=  7, 0.000000
*PAREX		=  8, 0.000000
*PAREX		=  9, 0.000000
*PAREX		=  10, 0.000000
*PAREX		=  11, 0.000000
*PAREX		=  12, 0.000000
*PAREX		=  13, 0.000000
*PAREX		=  14, 0.000000
*PAREX		=  15, 0.000000
*FULL_SCALE	=  156102
*INDEX		=  0, 0, 0
*COUNT		=  411
2171828.5, 2218862, 2259313.5, 2302243
2343025.5, 2379318.5, 2416658.5, 2453821
2487754.5, 2515435.5, 2546398, 2572993
2598991, 2620179.5, 2636493, 2649563.5
2657255.5, 2656136, 2650875, 2637632
2618038, 2585470.5, 2540077.5, 2488435.5
2428208, 2351636.5, 2263893, 2163708
2060903.1, 1942484.6, 1823535.1, 1696983.1
1575478.1, 1456336.6, 1338702.1, 1226189.1
1120780.1, 1022574.1, 930417, 842377
768770, 700301, 639789, 587091
540621, 501247, 465687, 434519
405082, 378859, 354540, 332516
314032, 296954, 278664, 262605
249448, 235923, 224550, 211835
201845, 191341, 182003, 172318
164468, 156909, 149353, 141942
135738, 129249, 123893, 117454
112417, 107163, 102418, 98220.5
93992.5, 89924, 85468.5, 82086
78032, 74709, 71746, 68585.5
65547, 62512, 60347.5, 57503.5
55359.5, 52720.5, 50560.5, 48579.5
46272, 44171, 42715, 40802.5
38863, 37883, 35957, 34377.5
33276, 31903.5, 30610, 29446.5
28221.5, 27023, 26024, 24680.5
24183, 22929.5, 22275, 21324.5
20434, 19804, 18880.5, 18328.5
17510, 17174.5, 16663.5, 15752
15077.5, 14451, 14159.5, 13643
13090, 12775.5, 12387.5, 11857
11491, 11324.5, 10674, 10382.5
10147.5, 9895.5, 9463.5, 9174
8925, 8823.5, 8619, 8492.5
8112, 7707, 7483, 7578.5
7385, 7246.5, 7055, 6928
6747.5, 6640, 6566.5, 6436
6307, 6281, 6178, 6116.5
6061, 5963, 5882, 5893.5
5692, 5761, 5545.5, 5586
5383, 5282, 5157.5, 5197
5170.5, 5064.5, 4998, 4862
5014, 4746, 4811.5, 4678.5
4588.5, 4639, 4526, 4452
4222.5, 4150.5, 4178, 4104
4109.5, 4160, 4092, 4091
4073, 3921, 3781.5, 3762.5
3768, 3682.5, 3791.5, 3527
3606, 3566, 3456, 3581
3432, 3387, 3423, 3366
3355.5, 3322.5, 3271.5, 3191.5
3146.5, 3112.5, 3109.5, 2964.5
3074.5, 3069, 2909, 2903.5
2885.5, 2937, 2783.5, 2701.5
2699, 2634.5, 2632.5, 2602.5
2680.5, 2527.5, 2539.5, 2438.5
2481, 2441, 2358.5, 2386.5
2317.5, 2266, 2221, 2059
2162.5, 2212, 2231, 2096.5
2125.5, 2038, 2070.5, 2028.5
1935, 2006.5, 1876, 1857
1936, 1803.5, 1817, 1832
1732.5, 1790.5, 1650, 1715.5
1685.5, 1648.5, 1636.5, 1630
1589.5, 1576.5, 1526.5, 1487
1526, 1534, 1478, 1375.5
1464.5, 1458, 1328.5, 1395.5
1376, 1349, 1345, 1331
1286, 1310.5, 1246.5, 1324
1220, 1333, 1208.5, 1197.5
1232.5, 1235.5, 1204.5, 1245
1140, 1162, 1177.5, 1220
1129.5, 1082.5, 1162, 1200.5
1145, 1137, 1101, 1130
1105, 1107, 1064.5, 1076.5
1167, 1112, 1098.5, 1129
1059, 1084, 1068.5, 1093.5
1071, 1122, 1038, 1009.5
1078, 1103.5, 1051.5, 1074.5
1093.5, 1092, 1105.5, 1047
1053, 1105.5, 1069, 1065
1041, 1048.5, 1027.5, 1093
1046, 1052.5, 1031, 1069.5
1042, 1010.5, 1018, 936
982.499, 1078.5, 991, 991
987.5, 980, 965.5, 973.5
1009, 961.5, 952, 971.5
973, 917, 922.501, 909
864, 934.5, 875, 898.499
862.5, 866.5, 856, 911.999
849.5, 868, 851.499, 887
806, 822, 779, 840.5
766.5, 754.501, 768, 701.999
738.5, 732, 754.5, 702.5
732.5, 666.5, 686.5, 682.5
720.5, 696, 682, 712.5
631, 679.5, 626, 615.5
612.5, 582.001, 618.5, 602.5
566.5, 634.5, 589.5, 564.5
517, 573, 575, 530.5
582, 542.5, 583, 525.5
450, 539.5, 498.5
*END

*EOF