File: XRD:XRR/SCO/22154_SCO(CL)_annealed/22154_SCO(CL)_XRD_annealed.csv
#twotheta, yobs, ycal, bkg, diff
42.0,9.4944,1.0,1.0,1.0
42.04,2.4944,1.0,1.0,1.0
42.08,7.0,1.0,1.0,1.0
42.12,2.0,1.0,1.0,1.0
42.16,11.0,1.0,1.0,1.0
42.2,8.0,1.0,1.0,1.0
42.24,9.0,1.0,1.0,1.0
42.28,8.0,1.0,1.0,1.0
42.32,12.0,1.0,1.0,1.0
42.36,8.0,1.0,1.0,1.0
42.4,7.5056,1.0,1.0,1.0
42.44,4.0,1.0,1.0,1.0
42.48,6.0,1.0,1.0,1.0
42.52,12.0,1.0,1.0,1.0
42.56,12.5056,1.0,1.0,1.0
42.6,5.0,1.0,1.0,1.0
42.64,5.0,1.0,1.0,1.0
42.68,18.4944,1.0,1.0,1.0
42.72,20.0,1.0,1.0,1.0
42.76,4.0,1.0,1.0,1.0
42.8,17.5056,1.0,1.0,1.0
42.84,23.5056,1.0,1.0,1.0
42.88,13.0,1.0,1.0,1.0
42.92,8.0,1.0,1.0,1.0
42.96,11.0,1.0,1.0,1.0
43.0,16.5056,1.0,1.0,1.0
43.04,9.5056,1.0,1.0,1.0
43.08,15.4944,1.0,1.0,1.0
43.12,3.0,1.0,1.0,1.0
43.16,22.0,1.0,1.0,1.0
43.2,6.0,1.0,1.0,1.0
43.24,14.5056,1.0,1.0,1.0
43.28,5.0,1.0,1.0,1.0
43.32,17.0,1.0,1.0,1.0
43.36,6.0111,1.0,1.0,1.0
43.4,6.5056,1.0,1.0,1.0
43.44,14.5056,1.0,1.0,1.0
43.48,12.0,1.0,1.0,1.0
43.52,16.0,1.0,1.0,1.0
43.56,4.0,1.0,1.0,1.0
43.6,4.5056,1.0,1.0,1.0
43.64,8.0,1.0,1.0,1.0
43.68,6.5056,1.0,1.0,1.0
43.72,8.0,1.0,1.0,1.0
43.76,12.0,1.0,1.0,1.0
43.8,2.0,1.0,1.0,1.0
43.84,7.0,1.0,1.0,1.0
43.88,3.5056,1.0,1.0,1.0
43.92,15.0,1.0,1.0,1.0
43.96,7.0,1.0,1.0,1.0
44.0,10.0,1.0,1.0,1.0
44.04,11.0,1.0,1.0,1.0
44.08,9.0,1.0,1.0,1.0
44.12,17.0,1.0,1.0,1.0
44.16,8.0,1.0,1.0,1.0
44.2,3.0,1.0,1.0,1.0
44.24,11.0,1.0,1.0,1.0
44.28,13.0111,1.0,1.0,1.0
44.32,11.4944,1.0,1.0,1.0
44.36,26.0,1.0,1.0,1.0
44.4,20.9889,1.0,1.0,1.0
44.44,37.0,1.0,1.0,1.0
44.48,26.0,1.0,1.0,1.0
44.52,29.5056,1.0,1.0,1.0
44.56,23.0111,1.0,1.0,1.0
44.6,63.0,1.0,1.0,1.0
44.64,44.9889,1.0,1.0,1.0
44.68,55.9889,1.0,1.0,1.0
44.72,61.0,1.0,1.0,1.0
44.76,61.4833,1.0,1.0,1.0
44.8,74.0,1.0,1.0,1.0
44.84,81.0,1.0,1.0,1.0
44.88,92.0,1.0,1.0,1.0
44.92,151.4944,1.0,1.0,1.0
44.96,121.0,1.0,1.0,1.0
45.0,121.4944,1.0,1.0,1.0
45.04,157.9889,1.0,1.0,1.0
45.08,171.0,1.0,1.0,1.0
45.12,214.5167,1.0,1.0,1.0
45.16,193.4722,1.0,1.0,1.0
45.2,229.4722,1.0,1.0,1.0
45.24,239.0111,1.0,1.0,1.0
45.28,263.0111,1.0,1.0,1.0
45.32,277.5056,1.0,1.0,1.0
45.36,306.9556,1.0,1.0,1.0
45.4,344.0,1.0,1.0,1.0
45.44,318.4611,1.0,1.0,1.0
45.48,393.5389,1.0,1.0,1.0
45.52,366.5167,1.0,1.0,1.0
45.56,421.0111,1.0,1.0,1.0
45.6,450.4833,1.0,1.0,1.0
45.64,473.0,1.0,1.0,1.0
45.68,492.0444,1.0,1.0,1.0
45.72,549.9778,1.0,1.0,1.0
45.76,519.5056,1.0,1.0,1.0
45.8,632.5278,1.0,1.0,1.0
45.84,590.5278,1.0,1.0,1.0
45.88,661.9667,1.0,1.0,1.0
45.92,644.4611,1.0,1.0,1.0
45.96,685.5389,1.0,1.0,1.0
46.0,729.0222,1.0,1.0,1.0
46.04,778.0,1.0,1.0,1.0
46.08,730.9889,1.0,1.0,1.0
46.12,865.4833,1.0,1.0,1.0
46.16,855.45,1.0,1.0,1.0
46.2,834.9667,1.0,1.0,1.0
46.24,921.5278,1.0,1.0,1.0
46.28,945.4833,1.0,1.0,1.0
46.32,963.0333,1.0,1.0,1.0
46.36,984.45,1.0,1.0,1.0
46.4,1073.53,1.0,1.0,1.0
46.44,1022.99,1.0,1.0,1.0
46.48,1121.0,1.0,1.0,1.0
46.52,1135.44,1.0,1.0,1.0
46.56,1110.02,1.0,1.0,1.0
46.6,1074.02,1.0,1.0,1.0
46.64,1024.01,1.0,1.0,1.0
46.68,1092.99,1.0,1.0,1.0
46.72,1064.54,1.0,1.0,1.0
46.76,1081.01,1.0,1.0,1.0
46.8,1076.02,1.0,1.0,1.0
46.84,1021.52,1.0,1.0,1.0
46.88,945.9889,1.0,1.0,1.0
46.92,898.5389,1.0,1.0,1.0
46.96,858.0,1.0,1.0,1.0
47.0,733.5167,1.0,1.0,1.0
47.04,657.0222,1.0,1.0,1.0
47.08,718.0333,1.0,1.0,1.0
47.12,556.5389,1.0,1.0,1.0
47.16,532.5056,1.0,1.0,1.0
47.2,557.0111,1.0,1.0,1.0
47.24,653.55,1.0,1.0,1.0
47.28,719.4722,1.0,1.0,1.0
47.32,919.0,1.0,1.0,1.0
47.36,1182.02,1.0,1.0,1.0
47.4,1387.97,1.0,1.0,1.0
47.44,1648.99,1.0,1.0,1.0
47.48,1978.55,1.0,1.0,1.0
47.52,2173.61,1.0,1.0,1.0
47.56,2189.11,1.0,1.0,1.0
47.6,2268.54,1.0,1.0,1.0
47.64,2457.96,1.0,1.0,1.0
47.68,2436.49,1.0,1.0,1.0
47.72,2872.35,1.0,1.0,1.0
47.76,3883.98,1.0,1.0,1.0
47.8,6163.32,1.0,1.0,1.0
47.84,12259.8,1.0,1.0,1.0
47.88,31861.7,1.0,1.0,1.0
47.92,132240,1.0,1.0,1.0
47.96,7720786.5,1.0,1.0,1.0
48.0,8021594.0,1.0,1.0,1.0
48.04,818678.5,1.0,1.0,1.0
48.08,51083.4,1.0,1.0,1.0
48.12,13474.8,1.0,1.0,1.0
48.16,5795.02,1.0,1.0,1.0
48.2,2938.52,1.0,1.0,1.0
48.24,1744.01,1.0,1.0,1.0
48.28,1044.52,1.0,1.0,1.0
48.32,755.9556,1.0,1.0,1.0
48.36,514.5389,1.0,1.0,1.0
48.4,404.4722,1.0,1.0,1.0
48.44,310.5056,1.0,1.0,1.0
48.48,240.9778,1.0,1.0,1.0
48.52,199.5167,1.0,1.0,1.0
48.56,157.5167,1.0,1.0,1.0
48.6,138.9889,1.0,1.0,1.0
48.64,106.4833,1.0,1.0,1.0
48.68,85.4944,1.0,1.0,1.0
48.72,98.5167,1.0,1.0,1.0
48.76,88.0,1.0,1.0,1.0
48.8,50.5056,1.0,1.0,1.0
48.84,53.0111,1.0,1.0,1.0
48.88,56.5056,1.0,1.0,1.0
48.92,31.0,1.0,1.0,1.0
48.96,45.0,1.0,1.0,1.0
49.0,39.0,1.0,1.0,1.0
49.04,31.5056,1.0,1.0,1.0
49.08,31.5056,1.0,1.0,1.0
49.12,27.0,1.0,1.0,1.0
49.16,30.4944,1.0,1.0,1.0
49.2,22.9889,1.0,1.0,1.0
49.24,17.0111,1.0,1.0,1.0
49.28,22.0,1.0,1.0,1.0
49.32,17.0,1.0,1.0,1.0
49.36,15.0,1.0,1.0,1.0
49.4,9.0,1.0,1.0,1.0
49.44,22.4944,1.0,1.0,1.0
49.48,19.5056,1.0,1.0,1.0
49.52,15.0,1.0,1.0,1.0
49.56,22.5056,1.0,1.0,1.0
49.6,27.0,1.0,1.0,1.0
49.64,7.5056,1.0,1.0,1.0
49.68,16.0,1.0,1.0,1.0
49.72,18.0111,1.0,1.0,1.0
49.76,33.4944,1.0,1.0,1.0
49.8,13.5056,1.0,1.0,1.0
49.84,17.0,1.0,1.0,1.0
49.88,4.0,1.0,1.0,1.0
49.92,8.5056,1.0,1.0,1.0
49.96,14.0,1.0,1.0,1.0
50.0,11.0,1.0,1.0,1.0
50.04,4.0,1.0,1.0,1.0
50.08,7.0,1.0,1.0,1.0
50.12,13.0,1.0,1.0,1.0
50.16,12.4944,1.0,1.0,1.0
50.2,12.0,1.0,1.0,1.0
50.24,7.5056,1.0,1.0,1.0
50.28,4.0,1.0,1.0,1.0
50.32,5.0,1.0,1.0,1.0
50.36,12.0,1.0,1.0,1.0
50.4,3.0,1.0,1.0,1.0
50.44,9.4944,1.0,1.0,1.0
50.48,17.0,1.0,1.0,1.0
50.52,13.0,1.0,1.0,1.0
50.56,4.0,1.0,1.0,1.0
50.6,12.0,1.0,1.0,1.0
50.64,15.0,1.0,1.0,1.0
50.68,2.0,1.0,1.0,1.0
50.72,4.0,1.0,1.0,1.0
50.76,2.0,1.0,1.0,1.0
50.8,12.0,1.0,1.0,1.0
50.84,2.0,1.0,1.0,1.0
50.88,6.0,1.0,1.0,1.0
50.92,10.0,1.0,1.0,1.0
50.96,3.0111,1.0,1.0,1.0
51.0,9.0,1.0,1.0,1.0
51.04,3.0,1.0,1.0,1.0
51.08,4.0,1.0,1.0,1.0
51.12,7.0,1.0,1.0,1.0
51.16,2.0,1.0,1.0,1.0
51.2,7.5056,1.0,1.0,1.0
51.24,5.0,1.0,1.0,1.0
51.28,8.0,1.0,1.0,1.0
51.32,8.0,1.0,1.0,1.0
51.36,2.0,1.0,1.0,1.0
51.4,4.0,1.0,1.0,1.0
51.44,5.0,1.0,1.0,1.0
51.48,8.0,1.0,1.0,1.0
51.52,7.4944,1.0,1.0,1.0
51.56,6.0,1.0,1.0,1.0
51.6,6.0,1.0,1.0,1.0
51.64,6.4944,1.0,1.0,1.0
51.68,4.0,1.0,1.0,1.0
51.72,5.0,1.0,1.0,1.0
51.76,0.0,1.0,1.0,1.0
51.8,0.0,1.0,1.0,1.0
51.84,5.4944,1.0,1.0,1.0
51.88,5.0,1.0,1.0,1.0
51.92,8.0,1.0,1.0,1.0
51.96,8.0,1.0,1.0,1.0
52.0,5.0,1.0,1.0,1.0