File: XRD:XRR/SCO/22166_SL(CO)L/22166_SL(CO)L_002_XRD.csv
#twotheta, yobs, ycal, bkg, diff
40.0,7.0,1.0,1.0,1.0
40.05,3.0,1.0,1.0,1.0
40.1,5.0,1.0,1.0,1.0
40.15,9.4944,1.0,1.0,1.0
40.2,5.0,1.0,1.0,1.0
40.25,11.0,1.0,1.0,1.0
40.3,8.0,1.0,1.0,1.0
40.35,2.0,1.0,1.0,1.0
40.4,8.5056,1.0,1.0,1.0
40.45,18.0,1.0,1.0,1.0
40.5,9.0,1.0,1.0,1.0
40.55,3.0,1.0,1.0,1.0
40.6,9.0,1.0,1.0,1.0
40.65,13.0,1.0,1.0,1.0
40.7,9.0,1.0,1.0,1.0
40.75,4.0,1.0,1.0,1.0
40.8,11.0,1.0,1.0,1.0
40.85,6.0,1.0,1.0,1.0
40.9,7.0,1.0,1.0,1.0
40.95,11.0,1.0,1.0,1.0
41.0,14.0,1.0,1.0,1.0
41.05,0.0,1.0,1.0,1.0
41.1,5.0,1.0,1.0,1.0
41.15,5.0,1.0,1.0,1.0
41.2,7.0,1.0,1.0,1.0
41.25,3.0,1.0,1.0,1.0
41.3,8.4944,1.0,1.0,1.0
41.35,2.0,1.0,1.0,1.0
41.4,11.0,1.0,1.0,1.0
41.45,7.4944,1.0,1.0,1.0
41.5,16.0,1.0,1.0,1.0
41.55,12.5056,1.0,1.0,1.0
41.6,4.0,1.0,1.0,1.0
41.65,10.0,1.0,1.0,1.0
41.7,13.0,1.0,1.0,1.0
41.75,12.0,1.0,1.0,1.0
41.8,10.0,1.0,1.0,1.0
41.85,11.0,1.0,1.0,1.0
41.9,5.0,1.0,1.0,1.0
41.95,14.5056,1.0,1.0,1.0
42.0,13.0,1.0,1.0,1.0
42.05,13.0,1.0,1.0,1.0
42.1,9.0,1.0,1.0,1.0
42.15,6.0,1.0,1.0,1.0
42.2,9.0,1.0,1.0,1.0
42.25,4.0,1.0,1.0,1.0
42.3,4.0,1.0,1.0,1.0
42.35,6.5056,1.0,1.0,1.0
42.4,9.0,1.0,1.0,1.0
42.45,3.0,1.0,1.0,1.0
42.5,1.4944,1.0,1.0,1.0
42.55,13.5056,1.0,1.0,1.0
42.6,5.0,1.0,1.0,1.0
42.65,4.0,1.0,1.0,1.0
42.7,9.0,1.0,1.0,1.0
42.75,3.0,1.0,1.0,1.0
42.8,6.5056,1.0,1.0,1.0
42.85,15.0,1.0,1.0,1.0
42.9,4.5056,1.0,1.0,1.0
42.95,6.4944,1.0,1.0,1.0
43.0,10.5056,1.0,1.0,1.0
43.05,8.0,1.0,1.0,1.0
43.1,0.0,1.0,1.0,1.0
43.15,5.0,1.0,1.0,1.0
43.2,9.5056,1.0,1.0,1.0
43.25,9.0,1.0,1.0,1.0
43.3,4.0,1.0,1.0,1.0
43.35,10.0,1.0,1.0,1.0
43.4,7.5056,1.0,1.0,1.0
43.45,15.0,1.0,1.0,1.0
43.5,15.0,1.0,1.0,1.0
43.55,14.0,1.0,1.0,1.0
43.6,14.0,1.0,1.0,1.0
43.65,6.0,1.0,1.0,1.0
43.7,6.0,1.0,1.0,1.0
43.75,10.0,1.0,1.0,1.0
43.8,10.0,1.0,1.0,1.0
43.85,15.0,1.0,1.0,1.0
43.9,10.0,1.0,1.0,1.0
43.95,25.5056,1.0,1.0,1.0
44.0,16.0,1.0,1.0,1.0
44.05,24.0,1.0,1.0,1.0
44.1,25.0,1.0,1.0,1.0
44.15,27.9889,1.0,1.0,1.0
44.2,24.0,1.0,1.0,1.0
44.25,26.0,1.0,1.0,1.0
44.3,36.0111,1.0,1.0,1.0
44.35,31.5056,1.0,1.0,1.0
44.4,34.5278,1.0,1.0,1.0
44.45,31.5056,1.0,1.0,1.0
44.5,23.0,1.0,1.0,1.0
44.55,46.0111,1.0,1.0,1.0
44.6,41.0,1.0,1.0,1.0
44.65,39.4944,1.0,1.0,1.0
44.7,63.0,1.0,1.0,1.0
44.75,39.5167,1.0,1.0,1.0
44.8,57.4944,1.0,1.0,1.0
44.85,75.9889,1.0,1.0,1.0
44.9,58.4944,1.0,1.0,1.0
44.95,85.0,1.0,1.0,1.0
45.0,83.5167,1.0,1.0,1.0
45.05,103.0,1.0,1.0,1.0
45.1,100.0111,1.0,1.0,1.0
45.15,128.5056,1.0,1.0,1.0
45.2,120.0,1.0,1.0,1.0
45.25,120.9778,1.0,1.0,1.0
45.3,121.0111,1.0,1.0,1.0
45.35,136.0111,1.0,1.0,1.0
45.4,166.0,1.0,1.0,1.0
45.45,174.9889,1.0,1.0,1.0
45.5,212.4944,1.0,1.0,1.0
45.55,192.9778,1.0,1.0,1.0
45.6,204.5056,1.0,1.0,1.0
45.65,220.0,1.0,1.0,1.0
45.7,233.4833,1.0,1.0,1.0
45.75,293.0111,1.0,1.0,1.0
45.8,281.0222,1.0,1.0,1.0
45.85,322.0111,1.0,1.0,1.0
45.9,334.9889,1.0,1.0,1.0
45.95,375.4944,1.0,1.0,1.0
46.0,401.0,1.0,1.0,1.0
46.05,448.4833,1.0,1.0,1.0
46.1,441.0444,1.0,1.0,1.0
46.15,508.5389,1.0,1.0,1.0
46.2,548.5278,1.0,1.0,1.0
46.25,639.9889,1.0,1.0,1.0
46.3,597.0111,1.0,1.0,1.0
46.35,686.9778,1.0,1.0,1.0
46.4,761.0222,1.0,1.0,1.0
46.45,848.5167,1.0,1.0,1.0
46.5,860.0222,1.0,1.0,1.0
46.55,983.4833,1.0,1.0,1.0
46.6,1052.54,1.0,1.0,1.0
46.65,1127.02,1.0,1.0,1.0
46.7,1174.53,1.0,1.0,1.0
46.75,1355.56,1.0,1.0,1.0
46.8,1431.02,1.0,1.0,1.0
46.85,1550.46,1.0,1.0,1.0
46.9,1664.99,1.0,1.0,1.0
46.95,1681.98,1.0,1.0,1.0
47.0,1742.55,1.0,1.0,1.0
47.05,1675.52,1.0,1.0,1.0
47.1,1854.98,1.0,1.0,1.0
47.15,1841.96,1.0,1.0,1.0
47.2,1914.49,1.0,1.0,1.0
47.25,1942.56,1.0,1.0,1.0
47.3,1977.02,1.0,1.0,1.0
47.35,1781.97,1.0,1.0,1.0
47.4,1650.55,1.0,1.0,1.0
47.45,1609.39,1.0,1.0,1.0
47.5,1680.46,1.0,1.0,1.0
47.55,1966.0,1.0,1.0,1.0
47.6,2498.45,1.0,1.0,1.0
47.65,3226.91,1.0,1.0,1.0
47.7,4059.97,1.0,1.0,1.0
47.75,5434.94,1.0,1.0,1.0
47.8,9342.76,1.0,1.0,1.0
47.85,25528.8,1.0,1.0,1.0
47.9,652499,1.0,1.0,1.0
47.95,4259882.0,1.0,1.0,1.0
48.0,1938807.625,1.0,1.0,1.0
48.05,115289,1.0,1.0,1.0
48.1,26997.1,1.0,1.0,1.0
48.15,7831.71,1.0,1.0,1.0
48.2,3250.21,1.0,1.0,1.0
48.25,1686.0,1.0,1.0,1.0
48.3,971.0333,1.0,1.0,1.0
48.35,667.4833,1.0,1.0,1.0
48.4,440.0333,1.0,1.0,1.0
48.45,324.5056,1.0,1.0,1.0
48.5,233.5167,1.0,1.0,1.0
48.55,197.9889,1.0,1.0,1.0
48.6,153.5167,1.0,1.0,1.0
48.65,99.0,1.0,1.0,1.0
48.7,100.4833,1.0,1.0,1.0
48.75,102.9889,1.0,1.0,1.0
48.8,61.4944,1.0,1.0,1.0
48.85,58.4944,1.0,1.0,1.0
48.9,65.5056,1.0,1.0,1.0
48.95,37.0,1.0,1.0,1.0
49.0,26.9778,1.0,1.0,1.0
49.05,31.0,1.0,1.0,1.0
49.1,38.0,1.0,1.0,1.0
49.15,54.4944,1.0,1.0,1.0
49.2,46.0,1.0,1.0,1.0
49.25,16.0,1.0,1.0,1.0
49.3,29.5056,1.0,1.0,1.0
49.35,29.0,1.0,1.0,1.0
49.4,20.0,1.0,1.0,1.0
49.45,15.0,1.0,1.0,1.0
49.5,23.4944,1.0,1.0,1.0
49.55,9.0,1.0,1.0,1.0
49.6,13.0,1.0,1.0,1.0
49.65,16.0,1.0,1.0,1.0
49.7,29.4944,1.0,1.0,1.0
49.75,12.0,1.0,1.0,1.0
49.8,5.0,1.0,1.0,1.0
49.85,12.4944,1.0,1.0,1.0
49.9,11.4944,1.0,1.0,1.0
49.95,10.4944,1.0,1.0,1.0
50.0,12.0,1.0,1.0,1.0
50.05,18.0,1.0,1.0,1.0
50.1,6.5056,1.0,1.0,1.0
50.15,8.0,1.0,1.0,1.0
50.2,6.0,1.0,1.0,1.0
50.25,4.0,1.0,1.0,1.0
50.3,3.0,1.0,1.0,1.0
50.35,12.0,1.0,1.0,1.0
50.4,7.4944,1.0,1.0,1.0
50.45,12.5056,1.0,1.0,1.0
50.5,14.0,1.0,1.0,1.0
50.55,3.0,1.0,1.0,1.0
50.6,12.0,1.0,1.0,1.0
50.65,5.0,1.0,1.0,1.0
50.7,12.0,1.0,1.0,1.0
50.75,18.9889,1.0,1.0,1.0
50.8,0.0,1.0,1.0,1.0
50.85,9.0,1.0,1.0,1.0
50.9,8.0,1.0,1.0,1.0
50.95,6.0,1.0,1.0,1.0
51.0,9.0,1.0,1.0,1.0
51.05,2.0,1.0,1.0,1.0
51.1,12.0,1.0,1.0,1.0
51.15,2.0,1.0,1.0,1.0
51.2,7.0,1.0,1.0,1.0
51.25,2.0,1.0,1.0,1.0
51.3,5.0,1.0,1.0,1.0
51.35,6.0,1.0,1.0,1.0
51.4,3.0,1.0,1.0,1.0
51.45,12.0,1.0,1.0,1.0
51.5,2.0,1.0,1.0,1.0
51.55,8.0,1.0,1.0,1.0
51.6,11.0,1.0,1.0,1.0
51.65,6.0,1.0,1.0,1.0
51.7,12.0,1.0,1.0,1.0
51.75,11.0,1.0,1.0,1.0
51.8,7.0,1.0,1.0,1.0
51.85,11.5056,1.0,1.0,1.0
51.9,2.0,1.0,1.0,1.0
51.95,16.0,1.0,1.0,1.0
52.0,14.0,1.0,1.0,1.0