File: XRD:XRR/LCO/22124_LCOT/22124_LCOT_XRR_2-Theta_Omega.asc
*TYPE		=  Raw
*CLASS		=  ASCII CLASS
*SAMPLE		=
*COMMENT	=
*FNAME		=  22124_LCOT_XRR_2-Theta_Omega.asc
*DATE		=  18-Aug-22 16:23

*GROUP_COUNT	=  1
*GONIO		=  SmartLab(In-plane), 0.000000
*ATTACHMENT	=  Z-Phi Stage
*ASC		=  0, 0, 0.000000, 0.000000
*I_MONOCHRO	=  Ge(220)x2, 0.000000
*FILTER		=  None
*C_MONOCHRO	=  None, 0.000000
*SLIT_NAME	=  0, Incident slit
*SLIT_NAME	=  1, Receiving slit # 1
*SLIT_NAME	=  2, Receiving slit # 2
*COUNTER	=  D/teX Ultra 250, 0
*POS_FORMAT	=  0
*SCAN_AXIS	=  2Theta/Omega
*MEAS_MODE	=  Continuous Scanning
*TARGET		=  29
*XRAY_CHAR	=  K-ALPHA1
*WAVE_LENGTH1	=  1.54059
*WAVE_LENGTH2	=  1.54441
*THICKNESS	=  0, 0.000000
*MU		=  0, 0.000000
*SCAN_MODE	=  2Theta/Omega
*SPEED_DIM	=  sec./step
*XUNIT		=  deg.
*YUNIT		=  counts
*SCALE_MODE	=  1
*REP_COUNT	=  0
*SE_COUNT	=  0
*STD_MATERIAL	=  Unknown, Unknown, 0.000000, 0.000000, 0.000000, 0.000000, 0.000000, 0.000000
*LATT_CONS	=  0, Unknown, Unknown, 0.000000, 0.000000, 0.000000, 0.000000, 0.000000, 0.000000
*SEC_COUNT	=  1
*TSPEC_SIZE	=  0
*EXTRA_SIZE	=  0
*MEMO		=

*BEGIN
*GROUP		=  0
*START		=  0.4
*STOP		=  4.5
*STEP		=  0.01
*OFFSET		=  -0.023600
*SPEED		=  23.9588
*SLIT_SPEC	=  0, 1.000mm, 1, 0.000000
*SLIT_SPEC	=  1, 1.000mm, 1, 0.000000
*SLIT_SPEC	=  2, 1.000mm, 1, 0.000000
*KV		=  40
*MA		=  30
*LOW		=  0.000000
*HIGH		=  0.000000
*CTEMPER	=  0, 0.000000
*CTEMPER	=  1, 0.000000
*CTEMPER	=  2, 0.000000
*PAREX		=  0, 0.000000
*PAREX		=  1, 0.000000
*PAREX		=  2, 0.000000
*PAREX		=  3, 0.000000
*PAREX		=  4, 0.000000
*PAREX		=  5, 0.000000
*PAREX		=  6, 0.000000
*PAREX		=  7, 0.000000
*PAREX		=  8, 0.000000
*PAREX		=  9, 0.000000
*PAREX		=  10, 0.000000
*PAREX		=  11, 0.000000
*PAREX		=  12, 0.000000
*PAREX		=  13, 0.000000
*PAREX		=  14, 0.000000
*PAREX		=  15, 0.000000
*FULL_SCALE	=  124576
*INDEX		=  0, 0, 0
*COUNT		=  411
1900071.5, 1942550.5, 1982827.5, 2026080.5
2063723.5, 2102139.5, 2142681, 2179132.5
2212862, 2248214, 2284355.5, 2310946
2340119.5, 2363939.5, 2388608.5, 2406822.5
2428838.5, 2442431.5, 2455496, 2459421
2459767, 2459654.5, 2450917.5, 2437303
2408974.5, 2374240, 2331826.5, 2278276
2215688.5, 2142097, 2059973.6, 1972758.1
1869689.6, 1764292.6, 1649770.6, 1528581.1
1405624.6, 1279929.1, 1150199.1, 1025719.6
904184, 790437, 685583, 593442
514596, 446160, 391295, 347619
315716, 290779, 275882, 265329
258511, 253748, 251128, 248859
247324, 243584, 238237, 232351
226981, 218494, 208753, 199477
187603, 175327, 164028, 150925
140205, 128839, 117256, 106465
97586.5, 89097, 81790, 75104.5
70077.5, 65143, 61800.5, 59383.5
57403.5, 55972.5, 55601.5, 55277.5
55206, 55744, 56122.5, 57147
57674.5, 58047, 58561.5, 58757
58604.5, 57734.5, 57646, 56206.5
55451, 53502.5, 52040, 50037
47730, 45662.5, 43068.5, 40826.5
38294, 35845, 33504.5, 31466.5
28637, 27470.5, 25160.5, 23232.5
22252, 21043.5, 19751.5, 18850
18299.5, 17719.5, 17447.5, 17430
17286, 17629.5, 17520.5, 17735.5
17927, 18041.5, 18619, 18918.5
18958.5, 19376.5, 19384.5, 19167.5
19345, 19360.5, 18829, 18838
18396.5, 17953, 17483.5, 16572.5
16096.5, 15545, 14831, 13988
13453, 12633, 12024.5, 11144
10723.5, 9882, 9472, 8747
8127.5, 7812.5, 7535.5, 7428
7039, 6881, 6729.5, 6650.5
6648, 6746.5, 6565.5, 6796.5
6838.5, 6935, 7212.5, 7392.5
7356, 7339.5, 7527, 7507
7516, 7473.5, 7639, 7433.5
7475, 7280.5, 7300.5, 6914.5
6663, 6676, 6310.5, 6162.5
5949.5, 5591.5, 5417, 5090
4885.5, 4540.5, 4419.5, 4213
3945, 3770, 3643, 3375.5
3358, 3232, 3147.5, 3043
3006, 2967.5, 2991.5, 3096
2982.5, 3102, 3098, 3079
3149.5, 3210, 3253.5, 3296
3419, 3437.5, 3425, 3533.5
3408.5, 3332, 3355.5, 3282
3203.5, 3267, 3087.5, 3114
3043, 2855.5, 2804.5, 2713
2568, 2502.5, 2384, 2313
2249.5, 2041.5, 1992, 1931
1888.5, 1770.5, 1670, 1749
1628.5, 1639.5, 1624, 1569
1655.5, 1593.5, 1552.5, 1475.5
1673, 1607.5, 1567, 1704
1685.5, 1657, 1675.5, 1694
1631.5, 1760.5, 1707.5, 1705.5
1664.5, 1711, 1650.5, 1644.5
1646.5, 1612, 1499.5, 1532.5
1534, 1454, 1472.5, 1371.5
1401.5, 1321, 1316, 1188.5
1240, 1130, 1145.5, 1108.5
1118, 1056, 1073.5, 1022.5
957, 955.5, 913, 909.5
947, 986, 977.5, 964.5
1003, 1004, 1007.5, 976
988, 1007.5, 997.5, 1034
1056.5, 1074.5, 1009, 1065.5
1008, 1031.5, 1042, 985.001
963, 991, 961.5, 973
940.5, 984.5, 927.5, 891.5
906, 917.5, 847, 824.501
830, 779, 802.5, 753.5
726.5, 732, 769.5, 712.5
710, 709.001, 693.5, 681.999
711, 721.999, 696.001, 692.5
792.5, 654.5, 753.5, 731.5
711.5, 705.5, 726.5, 770.5
744, 775.5, 633.5, 745
734, 746, 772.5, 714
769.5, 756.5, 709.5, 768.5
712, 749, 635.501, 642.999
653.5, 640, 650.5, 678.5
647, 628, 643.5, 609
623, 592.5, 649, 630.5
610, 530, 544.5, 535
586, 585.5, 537, 589
573.5, 548.5, 562, 585
559.5, 589.5, 656, 615
625.5, 560, 648, 587.5
636.5, 634, 633.5, 610.5
587.001, 594.999, 606.501, 587.999
645, 605.5, 616, 548.5
558.5, 545, 575, 482.5
546.5, 580.5, 517.5
*END

*EOF