File: XRD:XRR/LCO/22124_LCOT/22124_LCOT_XRD_002.csv
#twotheta, yobs, ycal, bkg, diff
42.0,5.0,1.0,1.0,1.0
42.04,11.0,1.0,1.0,1.0
42.08,16.4944,1.0,1.0,1.0
42.12,21.0,1.0,1.0,1.0
42.16,9.0,1.0,1.0,1.0
42.2,14.0,1.0,1.0,1.0
42.24,7.0,1.0,1.0,1.0
42.28,4.0,1.0,1.0,1.0
42.32,13.0,1.0,1.0,1.0
42.36,13.0,1.0,1.0,1.0
42.4,18.0,1.0,1.0,1.0
42.44,8.4944,1.0,1.0,1.0
42.48,2.5056,1.0,1.0,1.0
42.52,16.0,1.0,1.0,1.0
42.56,17.4944,1.0,1.0,1.0
42.6,6.0,1.0,1.0,1.0
42.64,8.0,1.0,1.0,1.0
42.68,17.0,1.0,1.0,1.0
42.72,7.0,1.0,1.0,1.0
42.76,22.0,1.0,1.0,1.0
42.8,21.0,1.0,1.0,1.0
42.84,26.4944,1.0,1.0,1.0
42.88,17.0,1.0,1.0,1.0
42.92,11.0,1.0,1.0,1.0
42.96,11.5056,1.0,1.0,1.0
43.0,8.0,1.0,1.0,1.0
43.04,6.0,1.0,1.0,1.0
43.08,4.0,1.0,1.0,1.0
43.12,25.0,1.0,1.0,1.0
43.16,31.0,1.0,1.0,1.0
43.2,18.5056,1.0,1.0,1.0
43.24,19.5056,1.0,1.0,1.0
43.28,25.0111,1.0,1.0,1.0
43.32,29.0,1.0,1.0,1.0
43.36,24.5056,1.0,1.0,1.0
43.4,20.5056,1.0,1.0,1.0
43.44,21.4944,1.0,1.0,1.0
43.48,13.0,1.0,1.0,1.0
43.52,14.0,1.0,1.0,1.0
43.56,21.4944,1.0,1.0,1.0
43.6,14.0,1.0,1.0,1.0
43.64,16.4833,1.0,1.0,1.0
43.68,17.0,1.0,1.0,1.0
43.72,43.4944,1.0,1.0,1.0
43.76,48.0,1.0,1.0,1.0
43.8,44.0,1.0,1.0,1.0
43.84,35.0,1.0,1.0,1.0
43.88,27.5056,1.0,1.0,1.0
43.92,28.0111,1.0,1.0,1.0
43.96,36.0,1.0,1.0,1.0
44.0,22.0,1.0,1.0,1.0
44.04,29.9889,1.0,1.0,1.0
44.08,32.0,1.0,1.0,1.0
44.12,46.0,1.0,1.0,1.0
44.16,48.4944,1.0,1.0,1.0
44.2,58.0,1.0,1.0,1.0
44.24,71.5056,1.0,1.0,1.0
44.28,63.4944,1.0,1.0,1.0
44.32,84.0111,1.0,1.0,1.0
44.36,53.0,1.0,1.0,1.0
44.4,34.5056,1.0,1.0,1.0
44.44,44.0,1.0,1.0,1.0
44.48,32.5056,1.0,1.0,1.0
44.52,36.5056,1.0,1.0,1.0
44.56,40.0,1.0,1.0,1.0
44.6,52.0111,1.0,1.0,1.0
44.64,72.0,1.0,1.0,1.0
44.68,87.4944,1.0,1.0,1.0
44.72,108.9889,1.0,1.0,1.0
44.76,122.4944,1.0,1.0,1.0
44.8,101.5167,1.0,1.0,1.0
44.84,122.0222,1.0,1.0,1.0
44.88,94.0111,1.0,1.0,1.0
44.92,91.4944,1.0,1.0,1.0
44.96,47.0111,1.0,1.0,1.0
45.0,44.9889,1.0,1.0,1.0
45.04,60.9889,1.0,1.0,1.0
45.08,62.4944,1.0,1.0,1.0
45.12,107.0,1.0,1.0,1.0
45.16,170.5167,1.0,1.0,1.0
45.2,213.5278,1.0,1.0,1.0
45.24,245.4833,1.0,1.0,1.0
45.28,250.0444,1.0,1.0,1.0
45.32,250.0222,1.0,1.0,1.0
45.36,216.5056,1.0,1.0,1.0
45.4,194.5278,1.0,1.0,1.0
45.44,156.0333,1.0,1.0,1.0
45.48,108.4833,1.0,1.0,1.0
45.52,73.0,1.0,1.0,1.0
45.56,76.5056,1.0,1.0,1.0
45.6,159.4944,1.0,1.0,1.0
45.64,226.0111,1.0,1.0,1.0
45.68,359.0222,1.0,1.0,1.0
45.72,507.9778,1.0,1.0,1.0
45.76,577.0111,1.0,1.0,1.0
45.8,692.9778,1.0,1.0,1.0
45.84,714.0,1.0,1.0,1.0
45.88,685.5278,1.0,1.0,1.0
45.92,574.9778,1.0,1.0,1.0
45.96,427.0222,1.0,1.0,1.0
46.0,257.0222,1.0,1.0,1.0
46.04,132.9889,1.0,1.0,1.0
46.08,136.4833,1.0,1.0,1.0
46.12,413.9889,1.0,1.0,1.0
46.16,913.9667,1.0,1.0,1.0
46.2,1997.9,1.0,1.0,1.0
46.24,3523.36,1.0,1.0,1.0
46.28,5902.35,1.0,1.0,1.0
46.32,9524.38,1.0,1.0,1.0
46.36,15662.4,1.0,1.0,1.0
46.4,39097.9,1.0,1.0,1.0
46.44,226729,1.0,1.0,1.0
46.48,7479363.0,1.0,1.0,1.0
46.52,632381,1.0,1.0,1.0
46.56,134147,1.0,1.0,1.0
46.6,81500.1,1.0,1.0,1.0
46.64,67654.8,1.0,1.0,1.0
46.68,61859.543,1.0,1.0,1.0
46.72,58730.75,1.0,1.0,1.0
46.76,56014.6,1.0,1.0,1.0
46.8,53270.3,1.0,1.0,1.0
46.84,49463.9,1.0,1.0,1.0
46.88,44484.8,1.0,1.0,1.0
46.92,39143.1,1.0,1.0,1.0
46.96,34174.4,1.0,1.0,1.0
47.0,28154.2,1.0,1.0,1.0
47.04,22433.9,1.0,1.0,1.0
47.08,17113.8,1.0,1.0,1.0
47.12,12349.5,1.0,1.0,1.0
47.16,8631.63,1.0,1.0,1.0
47.2,5316.64,1.0,1.0,1.0
47.24,3057.52,1.0,1.0,1.0
47.28,1461.03,1.0,1.0,1.0
47.32,561.0111,1.0,1.0,1.0
47.36,260.5056,1.0,1.0,1.0
47.4,296.0444,1.0,1.0,1.0
47.44,571.4722,1.0,1.0,1.0
47.48,914.0,1.0,1.0,1.0
47.52,1161.99,1.0,1.0,1.0
47.56,1339.48,1.0,1.0,1.0
47.6,1238.54,1.0,1.0,1.0
47.64,1154.01,1.0,1.0,1.0
47.68,935.9889,1.0,1.0,1.0
47.72,732.4722,1.0,1.0,1.0
47.76,456.0,1.0,1.0,1.0
47.8,310.9778,1.0,1.0,1.0
47.84,149.5056,1.0,1.0,1.0
47.88,102.4944,1.0,1.0,1.0
47.92,106.0,1.0,1.0,1.0
47.96,176.4944,1.0,1.0,1.0
48.0,237.0,1.0,1.0,1.0
48.04,301.5167,1.0,1.0,1.0
48.08,331.4944,1.0,1.0,1.0
48.12,350.9333,1.0,1.0,1.0
48.16,348.0222,1.0,1.0,1.0
48.2,287.5056,1.0,1.0,1.0
48.24,215.0222,1.0,1.0,1.0
48.28,128.0111,1.0,1.0,1.0
48.32,110.0111,1.0,1.0,1.0
48.36,68.5056,1.0,1.0,1.0
48.4,55.0,1.0,1.0,1.0
48.44,43.5056,1.0,1.0,1.0
48.48,62.4944,1.0,1.0,1.0
48.52,99.5056,1.0,1.0,1.0
48.56,137.5056,1.0,1.0,1.0
48.6,136.5278,1.0,1.0,1.0
48.64,125.4833,1.0,1.0,1.0
48.68,115.4944,1.0,1.0,1.0
48.72,123.0,1.0,1.0,1.0
48.76,78.5056,1.0,1.0,1.0
48.8,73.5056,1.0,1.0,1.0
48.84,32.4944,1.0,1.0,1.0
48.88,38.0,1.0,1.0,1.0
48.92,40.4944,1.0,1.0,1.0
48.96,41.0222,1.0,1.0,1.0
49.0,36.4944,1.0,1.0,1.0
49.04,42.4944,1.0,1.0,1.0
49.08,41.4833,1.0,1.0,1.0
49.12,66.4944,1.0,1.0,1.0
49.16,60.4944,1.0,1.0,1.0
49.2,71.0,1.0,1.0,1.0
49.24,52.0111,1.0,1.0,1.0
49.28,47.5056,1.0,1.0,1.0
49.32,26.0111,1.0,1.0,1.0
49.36,18.5056,1.0,1.0,1.0
49.4,28.5056,1.0,1.0,1.0
49.44,27.0111,1.0,1.0,1.0
49.48,25.0,1.0,1.0,1.0
49.52,32.0,1.0,1.0,1.0
49.56,28.0111,1.0,1.0,1.0
49.6,15.0,1.0,1.0,1.0
49.64,16.0,1.0,1.0,1.0
49.68,18.4944,1.0,1.0,1.0
49.72,25.0,1.0,1.0,1.0
49.76,40.0,1.0,1.0,1.0
49.8,25.0,1.0,1.0,1.0
49.84,19.4944,1.0,1.0,1.0
49.88,15.0,1.0,1.0,1.0
49.92,10.0,1.0,1.0,1.0
49.96,21.0,1.0,1.0,1.0
50.0,4.0,1.0,1.0,1.0
50.04,10.4944,1.0,1.0,1.0
50.08,20.0,1.0,1.0,1.0
50.12,31.0,1.0,1.0,1.0
50.16,11.0,1.0,1.0,1.0
50.2,12.0,1.0,1.0,1.0
50.24,4.0,1.0,1.0,1.0
50.28,8.0,1.0,1.0,1.0
50.32,18.0,1.0,1.0,1.0
50.36,14.4944,1.0,1.0,1.0
50.4,21.5056,1.0,1.0,1.0
50.44,7.0,1.0,1.0,1.0
50.48,14.0,1.0,1.0,1.0
50.52,12.0,1.0,1.0,1.0
50.56,6.5056,1.0,1.0,1.0
50.6,15.0,1.0,1.0,1.0
50.64,0.4944,1.0,1.0,1.0
50.68,5.0,1.0,1.0,1.0
50.72,14.0,1.0,1.0,1.0
50.76,12.5056,1.0,1.0,1.0
50.8,8.0,1.0,1.0,1.0
50.84,5.0,1.0,1.0,1.0
50.88,14.0,1.0,1.0,1.0
50.92,11.0,1.0,1.0,1.0
50.96,3.0,1.0,1.0,1.0
51.0,3.0,1.0,1.0,1.0
51.04,6.0,1.0,1.0,1.0
51.08,3.0,1.0,1.0,1.0
51.12,2.0,1.0,1.0,1.0
51.16,4.0,1.0,1.0,1.0
51.2,6.0,1.0,1.0,1.0
51.24,4.0,1.0,1.0,1.0
51.28,6.4944,1.0,1.0,1.0
51.32,3.0,1.0,1.0,1.0
51.36,9.0,1.0,1.0,1.0
51.4,11.0,1.0,1.0,1.0
51.44,6.5056,1.0,1.0,1.0
51.48,6.0,1.0,1.0,1.0
51.52,11.0,1.0,1.0,1.0
51.56,7.0,1.0,1.0,1.0
51.6,3.5056,1.0,1.0,1.0
51.64,0.0,1.0,1.0,1.0
51.68,8.0,1.0,1.0,1.0
51.72,9.4944,1.0,1.0,1.0
51.76,5.0,1.0,1.0,1.0
51.8,3.4944,1.0,1.0,1.0
51.84,2.0,1.0,1.0,1.0
51.88,8.0,1.0,1.0,1.0
51.92,6.0,1.0,1.0,1.0
51.96,9.0,1.0,1.0,1.0
52.0,1.0,1.0,1.0,1.0