File: XRD:XRR/LCO/22127_LCOS/22127_LCOS_XRD_200.csv
#twotheta, yobs, ycal, bkg, diff
42.0,18.5056,1.0,1.0,1.0
42.04,15.0,1.0,1.0,1.0
42.08,10.0,1.0,1.0,1.0
42.12,5.5056,1.0,1.0,1.0
42.16,16.0,1.0,1.0,1.0
42.2,20.0,1.0,1.0,1.0
42.24,7.5056,1.0,1.0,1.0
42.28,22.0,1.0,1.0,1.0
42.32,14.9889,1.0,1.0,1.0
42.36,21.0,1.0,1.0,1.0
42.4,22.5056,1.0,1.0,1.0
42.44,13.0,1.0,1.0,1.0
42.48,26.4944,1.0,1.0,1.0
42.52,12.0,1.0,1.0,1.0
42.56,19.4944,1.0,1.0,1.0
42.6,22.0,1.0,1.0,1.0
42.64,15.5056,1.0,1.0,1.0
42.68,14.0,1.0,1.0,1.0
42.72,11.0,1.0,1.0,1.0
42.76,15.5056,1.0,1.0,1.0
42.8,21.4944,1.0,1.0,1.0
42.84,8.4944,1.0,1.0,1.0
42.88,26.0,1.0,1.0,1.0
42.92,16.5056,1.0,1.0,1.0
42.96,22.0,1.0,1.0,1.0
43.0,18.9889,1.0,1.0,1.0
43.04,47.0,1.0,1.0,1.0
43.08,25.0111,1.0,1.0,1.0
43.12,32.0,1.0,1.0,1.0
43.16,33.9889,1.0,1.0,1.0
43.2,34.4944,1.0,1.0,1.0
43.24,32.0,1.0,1.0,1.0
43.28,26.9778,1.0,1.0,1.0
43.32,42.0111,1.0,1.0,1.0
43.36,21.5056,1.0,1.0,1.0
43.4,15.0,1.0,1.0,1.0
43.44,23.0,1.0,1.0,1.0
43.48,30.5056,1.0,1.0,1.0
43.52,25.0,1.0,1.0,1.0
43.56,12.0,1.0,1.0,1.0
43.6,24.0,1.0,1.0,1.0
43.64,33.0,1.0,1.0,1.0
43.68,33.0111,1.0,1.0,1.0
43.72,35.0,1.0,1.0,1.0
43.76,39.4944,1.0,1.0,1.0
43.8,25.9889,1.0,1.0,1.0
43.84,56.5056,1.0,1.0,1.0
43.88,50.0,1.0,1.0,1.0
43.92,47.5056,1.0,1.0,1.0
43.96,37.5056,1.0,1.0,1.0
44.0,47.0,1.0,1.0,1.0
44.04,27.0,1.0,1.0,1.0
44.08,20.0,1.0,1.0,1.0
44.12,31.0,1.0,1.0,1.0
44.16,31.5056,1.0,1.0,1.0
44.2,32.0,1.0,1.0,1.0
44.24,20.5056,1.0,1.0,1.0
44.28,43.0,1.0,1.0,1.0
44.32,42.4944,1.0,1.0,1.0
44.36,39.0,1.0,1.0,1.0
44.4,64.4944,1.0,1.0,1.0
44.44,77.4944,1.0,1.0,1.0
44.48,92.4944,1.0,1.0,1.0
44.52,84.9889,1.0,1.0,1.0
44.56,79.4944,1.0,1.0,1.0
44.6,48.5056,1.0,1.0,1.0
44.64,65.4833,1.0,1.0,1.0
44.68,46.4944,1.0,1.0,1.0
44.72,63.4944,1.0,1.0,1.0
44.76,49.4944,1.0,1.0,1.0
44.8,46.5056,1.0,1.0,1.0
44.84,63.0,1.0,1.0,1.0
44.88,72.5056,1.0,1.0,1.0
44.92,64.4944,1.0,1.0,1.0
44.96,83.9889,1.0,1.0,1.0
45.0,104.4944,1.0,1.0,1.0
45.04,114.5056,1.0,1.0,1.0
45.08,148.9778,1.0,1.0,1.0
45.12,138.4833,1.0,1.0,1.0
45.16,139.0111,1.0,1.0,1.0
45.2,104.5056,1.0,1.0,1.0
45.24,125.5056,1.0,1.0,1.0
45.28,111.0,1.0,1.0,1.0
45.32,111.5167,1.0,1.0,1.0
45.36,111.0,1.0,1.0,1.0
45.4,114.0,1.0,1.0,1.0
45.44,135.4833,1.0,1.0,1.0
45.48,139.4944,1.0,1.0,1.0
45.52,170.5167,1.0,1.0,1.0
45.56,216.9556,1.0,1.0,1.0
45.6,295.0333,1.0,1.0,1.0
45.64,346.4722,1.0,1.0,1.0
45.68,384.0222,1.0,1.0,1.0
45.72,412.5056,1.0,1.0,1.0
45.76,464.0111,1.0,1.0,1.0
45.8,438.9667,1.0,1.0,1.0
45.84,418.0111,1.0,1.0,1.0
45.88,460.0333,1.0,1.0,1.0
45.92,416.5389,1.0,1.0,1.0
45.96,373.5167,1.0,1.0,1.0
46.0,416.0222,1.0,1.0,1.0
46.04,451.0333,1.0,1.0,1.0
46.08,689.4944,1.0,1.0,1.0
46.12,952.4389,1.0,1.0,1.0
46.16,1404.93,1.0,1.0,1.0
46.2,1978.51,1.0,1.0,1.0
46.24,2797.42,1.0,1.0,1.0
46.28,3881.439,1.0,1.0,1.0
46.32,4885.55,1.0,1.0,1.0
46.36,6539.9,1.0,1.0,1.0
46.4,8347.29,1.0,1.0,1.0
46.44,9972.81,1.0,1.0,1.0
46.48,12312.7,1.0,1.0,1.0
46.52,14523.4,1.0,1.0,1.0
46.56,17051.877,1.0,1.0,1.0
46.6,19638.127,1.0,1.0,1.0
46.64,22273.5,1.0,1.0,1.0
46.68,25497.3,1.0,1.0,1.0
46.72,29094.084,1.0,1.0,1.0
46.76,34599.6,1.0,1.0,1.0
46.8,42478.9,1.0,1.0,1.0
46.84,60187.6,1.0,1.0,1.0
46.88,108669,1.0,1.0,1.0
46.92,349227,1.0,1.0,1.0
46.96,40285548.0,1.0,1.0,1.0
47.0,203450,1.0,1.0,1.0
47.04,37151.7,1.0,1.0,1.0
47.08,13442.9,1.0,1.0,1.0
47.12,7861.18,1.0,1.0,1.0
47.16,5226.06,1.0,1.0,1.0
47.2,3803.01,1.0,1.0,1.0
47.24,2798.53,1.0,1.0,1.0
47.28,2019.51,1.0,1.0,1.0
47.32,1343.99,1.0,1.0,1.0
47.36,842.0222,1.0,1.0,1.0
47.4,526.4944,1.0,1.0,1.0
47.44,292.5056,1.0,1.0,1.0
47.48,174.4944,1.0,1.0,1.0
47.52,105.4944,1.0,1.0,1.0
47.56,108.5056,1.0,1.0,1.0
47.6,141.0111,1.0,1.0,1.0
47.64,194.9889,1.0,1.0,1.0
47.68,213.5389,1.0,1.0,1.0
47.72,280.0333,1.0,1.0,1.0
47.76,326.5278,1.0,1.0,1.0
47.8,340.0,1.0,1.0,1.0
47.84,286.0,1.0,1.0,1.0
47.88,266.5167,1.0,1.0,1.0
47.92,250.0,1.0,1.0,1.0
47.96,166.5056,1.0,1.0,1.0
48.0,135.0333,1.0,1.0,1.0
48.04,100.4833,1.0,1.0,1.0
48.08,52.9889,1.0,1.0,1.0
48.12,53.5056,1.0,1.0,1.0
48.16,40.5056,1.0,1.0,1.0
48.2,42.9889,1.0,1.0,1.0
48.24,43.4833,1.0,1.0,1.0
48.28,60.0111,1.0,1.0,1.0
48.32,52.4944,1.0,1.0,1.0
48.36,94.4944,1.0,1.0,1.0
48.4,113.5056,1.0,1.0,1.0
48.44,119.4833,1.0,1.0,1.0
48.48,93.0,1.0,1.0,1.0
48.52,107.5056,1.0,1.0,1.0
48.56,70.9889,1.0,1.0,1.0
48.6,84.4944,1.0,1.0,1.0
48.64,67.5056,1.0,1.0,1.0
48.68,54.5278,1.0,1.0,1.0
48.72,31.0,1.0,1.0,1.0
48.76,23.0,1.0,1.0,1.0
48.8,28.0,1.0,1.0,1.0
48.84,7.4944,1.0,1.0,1.0
48.88,12.0111,1.0,1.0,1.0
48.92,14.0,1.0,1.0,1.0
48.96,23.0,1.0,1.0,1.0
49.0,42.0,1.0,1.0,1.0
49.04,32.5056,1.0,1.0,1.0
49.08,44.9889,1.0,1.0,1.0
49.12,45.4944,1.0,1.0,1.0
49.16,61.5056,1.0,1.0,1.0
49.2,48.4944,1.0,1.0,1.0
49.24,43.0,1.0,1.0,1.0
49.28,37.0,1.0,1.0,1.0
49.32,25.0,1.0,1.0,1.0
49.36,28.0,1.0,1.0,1.0
49.4,19.0,1.0,1.0,1.0
49.44,18.0,1.0,1.0,1.0
49.48,10.0,1.0,1.0,1.0
49.52,9.0,1.0,1.0,1.0
49.56,13.0,1.0,1.0,1.0
49.6,3.0,1.0,1.0,1.0
49.64,14.0,1.0,1.0,1.0
49.68,17.0,1.0,1.0,1.0
49.72,32.0,1.0,1.0,1.0
49.76,13.0,1.0,1.0,1.0
49.8,28.0,1.0,1.0,1.0
49.84,29.0111,1.0,1.0,1.0
49.88,36.5056,1.0,1.0,1.0
49.92,25.4944,1.0,1.0,1.0
49.96,11.5056,1.0,1.0,1.0
50.0,20.9889,1.0,1.0,1.0
50.04,15.4944,1.0,1.0,1.0
50.08,16.4944,1.0,1.0,1.0
50.12,13.5056,1.0,1.0,1.0
50.16,6.0,1.0,1.0,1.0
50.2,10.0,1.0,1.0,1.0
50.24,6.0,1.0,1.0,1.0
50.28,2.0,1.0,1.0,1.0
50.32,14.0,1.0,1.0,1.0
50.36,20.0111,1.0,1.0,1.0
50.4,6.4944,1.0,1.0,1.0
50.44,10.0,1.0,1.0,1.0
50.48,13.0,1.0,1.0,1.0
50.52,15.0,1.0,1.0,1.0
50.56,8.0,1.0,1.0,1.0
50.6,18.0,1.0,1.0,1.0
50.64,7.0,1.0,1.0,1.0
50.68,3.0,1.0,1.0,1.0
50.72,8.0,1.0,1.0,1.0
50.76,8.0,1.0,1.0,1.0
50.8,6.4944,1.0,1.0,1.0
50.84,2.0,1.0,1.0,1.0
50.88,11.0,1.0,1.0,1.0
50.92,4.0,1.0,1.0,1.0
50.96,8.0,1.0,1.0,1.0
51.0,5.0,1.0,1.0,1.0
51.04,7.4944,1.0,1.0,1.0
51.08,3.0,1.0,1.0,1.0
51.12,10.9889,1.0,1.0,1.0
51.16,8.0,1.0,1.0,1.0
51.2,2.0,1.0,1.0,1.0
51.24,4.4944,1.0,1.0,1.0
51.28,15.0,1.0,1.0,1.0
51.32,5.0,1.0,1.0,1.0
51.36,8.0,1.0,1.0,1.0
51.4,5.0,1.0,1.0,1.0
51.44,8.0,1.0,1.0,1.0
51.48,3.0,1.0,1.0,1.0
51.52,7.0,1.0,1.0,1.0
51.56,6.4944,1.0,1.0,1.0
51.6,0.5056,1.0,1.0,1.0
51.64,6.0,1.0,1.0,1.0
51.68,3.0,1.0,1.0,1.0
51.72,1.0,1.0,1.0,1.0
51.76,7.0,1.0,1.0,1.0
51.8,8.0,1.0,1.0,1.0
51.84,6.0,1.0,1.0,1.0
51.88,1.0,1.0,1.0,1.0
51.92,5.0,1.0,1.0,1.0
51.96,4.0,1.0,1.0,1.0
52.0,0.0,1.0,1.0,1.0