File: XRD:XRR/LCO/22129_LCOT/22129_LCOT_XRD_200_2-Theta_Omega.asc
*TYPE		=  Raw
*CLASS		=  ASCII CLASS
*SAMPLE		=
*COMMENT	=
*FNAME		=  22129_LCOT_XRD_200_2-Theta_Omega.asc
*DATE		=  26-Aug-22 16:41

*GROUP_COUNT	=  1
*GONIO		=  SmartLab(In-plane), 0.000000
*ATTACHMENT	=  Z-Phi Stage
*ASC		=  0, 0, 0.000000, 0.000000
*I_MONOCHRO	=  Ge(220)x2, 0.000000
*FILTER		=  None
*C_MONOCHRO	=  None, 0.000000
*SLIT_NAME	=  0, Incident slit
*SLIT_NAME	=  1, Receiving slit # 1
*SLIT_NAME	=  2, Receiving slit # 2
*COUNTER	=  D/teX Ultra 250, 0
*POS_FORMAT	=  0
*SCAN_AXIS	=  2Theta/Omega
*MEAS_MODE	=  Continuous Scanning
*TARGET		=  29
*XRAY_CHAR	=  K-ALPHA1
*WAVE_LENGTH1	=  1.54059
*WAVE_LENGTH2	=  1.54441
*THICKNESS	=  0, 0.000000
*MU		=  0, 0.000000
*SCAN_MODE	=  2Theta/Omega
*SPEED_DIM	=  sec./step
*XUNIT		=  deg.
*YUNIT		=  counts
*SCALE_MODE	=  1
*REP_COUNT	=  0
*SE_COUNT	=  0
*STD_MATERIAL	=  Unknown, Unknown, 0.000000, 0.000000, 0.000000, 0.000000, 0.000000, 0.000000
*LATT_CONS	=  0, Unknown, Unknown, 0.000000, 0.000000, 0.000000, 0.000000, 0.000000, 0.000000
*SEC_COUNT	=  1
*TSPEC_SIZE	=  0
*EXTRA_SIZE	=  0
*MEMO		=

*BEGIN
*GROUP		=  0
*START		=  42
*STOP		=  52
*STEP		=  0.01
*OFFSET		=  -0.034100
*SPEED		=  23.9588
*SLIT_SPEC	=  0, 0.400mm, 0.4, 0.000000
*SLIT_SPEC	=  1, 0.400mm, 0.4, 0.000000
*SLIT_SPEC	=  2, 0.400mm, 0.4, 0.000000
*KV		=  40
*MA		=  30
*LOW		=  0.000000
*HIGH		=  0.000000
*CTEMPER	=  0, 0.000000
*CTEMPER	=  1, 0.000000
*CTEMPER	=  2, 0.000000
*PAREX		=  0, 0.000000
*PAREX		=  1, 0.000000
*PAREX		=  2, 0.000000
*PAREX		=  3, 0.000000
*PAREX		=  4, 0.000000
*PAREX		=  5, 0.000000
*PAREX		=  6, 0.000000
*PAREX		=  7, 0.000000
*PAREX		=  8, 0.000000
*PAREX		=  9, 0.000000
*PAREX		=  10, 0.000000
*PAREX		=  11, 0.000000
*PAREX		=  12, 0.000000
*PAREX		=  13, 0.000000
*PAREX		=  14, 0.000000
*PAREX		=  15, 0.000000
*FULL_SCALE	=  3633596
*INDEX		=  0, 0, 0
*COUNT		=  1001
23, 6, 24, 30
16, 12, 22, 16
34, 19.4944, 13.5056, 11.9889
23.0111, 10.4944, 33, 43.5056
19, 21, 32, 39.4944
32.4944, 44.0111, 27, 41.4944
33.4944, 57.4722, 36.5278, 38.0111
53, 45, 41, 21
23, 40.9889, 57.5056, 38
29.5056, 29, 55.4722, 44.0222
47.4944, 38.0111, 26.4944, 28.5056
34, 25.4944, 45.5056, 33
31.4944, 22, 41.9889, 52.0111
39.4944, 34.5056, 30, 42.5056
29, 20.4944, 35.4944, 24.0111
27.4944, 36.4944, 27.0111, 31
22, 24.4944, 33.5056, 32.4944
22.5056, 38, 36, 34
29.4944, 24.5056, 24, 25
23.4944, 27.5056, 19.4944, 38.5056
38.4944, 33.5056, 45.4944, 35
33.5056, 48.4944, 28.5056, 43
53.9889, 35.0111, 54.4944, 39
38, 54, 56, 58.4944
55.0111, 47, 53.9889, 49.0111
56.4833, 71.5167, 58.4944, 76
61.9889, 73.5056, 72.5056, 38.4944
60.4944, 76.0111, 75.5056, 73
67.4944, 80.9889, 65.0111, 48.5056
49, 69, 63.9889, 74.5056
68.5056, 50.4833, 45.5167, 62
58.4944, 47.5056, 58, 46.9889
45.0111, 60.9889, 39.5056, 43.5056
42.9889, 36.0111, 50.9889, 41.5056
44.5056, 28, 36, 39
22, 24.4944, 31, 30.5056
26, 28.9889, 56.5056, 51
39.5056, 37, 53.9889, 47.5056
34, 44, 50, 68.4944
48.5056, 72.5056, 57.4944, 64.4944
69.0111, 74.4944, 60, 75.5056
68.4833, 84.5056, 95, 91.4944
83.5167, 108.989, 89.5056, 100
105.494, 93.4833, 120.011, 108.494
120.506, 116, 123.517, 119.989
108, 123, 100.011, 102.989
102.506, 127.989, 111.506, 108
105.989, 120.517, 119.494, 116
128.506, 93.5056, 90.4944, 102.494
84.5056, 95.4833, 78.0111, 73
86, 95, 86.0111, 83.9889
65.0111, 59, 61.9889, 54.0111
47, 56, 73.9889, 59.0111
37.4944, 53.4944, 50.0111, 49
40, 61.4833, 57.0111, 52.9889
45.5167, 40, 51.4944, 60.4944
86.0111, 81.4944, 48.5056, 76.4944
82.5056, 94.9889, 115.506, 73.9889
107.494, 126.011, 102.011, 134.472
167.517, 140.011, 151.989, 164.989
167.022, 145.989, 175.472, 167.528
169.011, 196.978, 203.506, 213.472
210.528, 173.472, 216.539, 232
208.472, 214.978, 248.506, 212.528
205.494, 223.528, 253.494, 203.472
223, 233.494, 250.517, 190
229, 175.517, 173.461, 204.528
160.506, 193.506, 164.978, 163
185.528, 139.989, 125, 130.506
135.989, 119.011, 115.483, 89.0222
96.4833, 89.0111, 94, 66.5056
85.9889, 76.0111, 59.9889, 66.5056
71, 61.4944, 72.0111, 71.4833
66.5056, 72.5056, 77.4944, 69.9778
107.011, 112.011, 100.011, 119.494
145.494, 169.483, 159, 182.011
196.011, 210.494, 225, 238.978
285.022, 299.472, 292, 302.978
350.483, 357.539, 379.989, 431.483
399.022, 428.978, 496.022, 461.472
520.517, 508.506, 519.506, 508.978
501.494, 543.506, 579.506, 570.506
548.989, 545.978, 527.55, 588.494
612.45, 526.056, 576.461, 537.528
519.989, 552.044, 436.956, 519.517
496, 517, 436, 461.989
457.989, 421.517, 361.539, 363.989
319.494, 326.461, 334.561, 273.472
268.506, 240.506, 217.989, 196.011
175.011, 195.494, 133, 124.517
130.989, 145.989, 137.494, 140.011
99, 117, 126.517, 170.483
161, 183, 182.483, 245.011
287.494, 278.472, 358.494, 406.044
405.967, 519.483, 527.022, 616.439
683, 763.022, 816.517, 933.956
982.989, 1015.48, 1176.48, 1237.02
1353.02, 1433.98, 1468.97, 1649.98
1725.49, 1807.94, 1930.96, 2079.99
2135.66, 2270.41, 2457.93, 2505.96
2621.09, 2613.94, 2885.99, 2888.56
3009.9, 3085.91, 3090.59, 3307.53
3221.03, 3447.88, 3505.04, 3601.51
3638.03, 3667.91, 3824.97, 3781.54
3952.45, 3965.01, 3864.51, 3867.07
3909.42, 4056.02, 4062.99, 4103.51
4092.45, 4325.55, 4407.49, 4506.89
4553.65, 4738.93, 4907.43, 5026.94
5668.37, 6295.56, 7150.46, 8217.25
10344.7, 13458.2, 18855.2, 26858.4
40826, 64804.3, 105495, 169124
303813, 713425, 2034772.6, 7088928.5
47661400, 58539436, 26763470, 4033997.8
1133229.4, 644768, 443111, 333012
251374, 179138, 130032, 107138
94041.1, 83825.7, 75291.5, 69812.8
65027.4, 60932.6, 58129.6, 55005.5
52689.9, 50914.9, 48658, 47104.3
45815.8, 44660.4, 43139.1, 42546.1
40812.7, 40375.7, 39606.2, 39009.7
37911.6, 37313.6, 36365.6, 35939.1
35302.9, 34382.7, 33931, 33377
32677.2, 31985.5, 31805.7, 31019
30643.1, 30010.8, 29351.6, 28616.9
28418.2, 27896, 27217.2, 26794.9
26401.4, 25598.1, 24959.2, 24506.4
24086.6, 23258, 22679.4, 22117.6
21491.6, 20743, 20267.1, 19897.6
19220.2, 18449.5, 17865.5, 17359.5
16740.8, 16309.1, 15581.7, 14939
14319, 13595.2, 13338.5, 12368.4
11977.7, 11313.1, 11058.9, 10611.6
10041, 9329.12, 9029.49, 8284.07
8001.14, 7628.62, 7040.42, 6693.62
6095.56, 5741.98, 5299.55, 4961.56
4524.56, 4142.59, 3904.45, 3452.53
3298.06, 2874.54, 2840.01, 2462.53
2256.98, 1958.09, 1733.48, 1603.02
1344.02, 1279.55, 1056.99, 977.528
838.989, 730.022, 657.461, 579.044
464.539, 421.989, 340.022, 251.978
273, 263.517, 261.506, 236.494
231.011, 245.483, 221.517, 260.483
249.517, 295.989, 301.494, 359
417.506, 409.967, 502.483, 505.55
497.978, 578.472, 637.539, 628.956
698.044, 717.472, 763.506, 837.944
857.033, 848.011, 856.461, 862.011
916.022, 939.933, 913.089, 914.978
980.989, 939.528, 937.956, 927.506
906.956, 924.561, 896.967, 915.011
882.528, 846.494, 820.45, 836.033
798.517, 745.506, 732.517, 700.967
746.483, 680.044, 640.517, 621.494
577, 513.022, 502.978, 526.011
476.989, 440.011, 402.494, 332.011
312.506, 317.989, 317.011, 287.517
251.494, 232.989, 196.517, 169.483
200.506, 141.011, 148, 123
115.989, 109.022, 103.494, 102.011
82.4833, 71.5056, 74.5056, 78.4944
96, 82.5056, 69.5056, 68.4944
74.4833, 86.0222, 89.9778, 94.4944
110.011, 134.483, 134.011, 156.011
160, 169.978, 185.517, 152
162.506, 193.494, 192, 204.494
205.517, 221.483, 222.483, 209.517
234, 245.494, 270.506, 228.011
259, 267.483, 256.517, 250.45
264.033, 251.506, 242.494, 212
248.011, 268, 222.967, 260.011
271.022, 228.494, 213.494, 207
177, 184.506, 216.506, 185.506
172.494, 147.494, 174.506, 146
156.011, 135, 131.494, 127.494
107.506, 98.0111, 107.989, 79.5056
76, 82.4944, 105, 74.0111
68.4833, 69.5056, 65.0111, 56.4944
64, 65.4944, 64, 53.5056
45.5056, 54.9889, 52, 50.0111
40, 31, 53.4944, 55.4944
41.0111, 56.4944, 78.5056, 57.9889
75.5056, 56, 73, 64
75, 74.9889, 70.5056, 65.0111
51.9889, 70.5056, 92.9889, 115.517
69, 83.9889, 92.5056, 81
66.5056, 72.9778, 92.0222, 92.4944
81, 102.494, 109.011, 96
104.989, 65, 75.4944, 84
84.0111, 68.5056, 58.9889, 55.4944
94.0111, 67, 90, 80.5056
51.4944, 81.4833, 70.0222, 76
64, 49, 55.4944, 73.5056
52.4833, 63.5167, 48.9889, 54.0111
50, 43.9889, 47.5056, 34.5056
42.9889, 47.9889, 33.5167, 27
56.5056, 29, 34.4944, 39.5056
21.4833, 20.0111, 25.4944, 38.0111
24.9889, 28.0111, 23.4944, 39.9889
33.5167, 46, 19.4944, 33
34.5056, 44, 28.4944, 25
37, 27.5056, 36.4944, 35.5056
27, 27.9889, 33, 32
32.0111, 35.4833, 44.5056, 44.0111
30, 34, 30.4944, 29
59, 35.5056, 39, 25
31.4944, 45.5056, 43.9889, 36.0111
39, 38, 39, 31
36.9889, 41.5056, 44.5056, 25
20, 21.4944, 36, 32.5056
26, 29.4944, 19.4944, 30.0111
33.4944, 21.5056, 28, 24.4944
18.5056, 21, 24, 20
25, 6, 27, 24
40.4833, 28, 25.5167, 18
24, 32.4944, 21.5056, 13
18.4944, 15.5056, 26, 21
9, 24, 15, 6
11, 22.4944, 17.5056, 20
23, 25, 14, 15.4944
21.5056, 9, 24, 16.4944
30, 23.5056, 25, 20.9889
51.0111, 20, 19, 7
15, 24.9889, 16.0111, 20
25, 32, 14, 15
18, 12, 22, 16
7.49445, 12.5056, 19, 17
8, 9.49445, 13.4944, 16.0111
7, 14, 17.4944, 17
23.5056, 2, 12.4944, 8.50555
20, 7, 13, 14.4944
13.5056, 7, 16, 17
14.9889, 23.5056, 6.50555, 14.4944
13.5056, 17, 9.49445, 22.5056
8, 17.4944, 19.5056, 15
6, 16, 12, 11
10.9889, 11.0111, 15, 11
24, 13, 12, 17.4944
11.5056, 14, 13, 12
4, 14, 7, 9
13.4944, 10.5056, 6, 9
3.49445, 5.50555, 10, 6
12, 13, 0.000000, 11
7.49445, 7.50555, 5, 2
7, 14, 14, 10
16, 8, 5, 15
14, 11, 12, 3.49445
4.50555, 2.49445, 15.5056, 7
2, 8, 10, 8
11, 13, 4, 3.49445
9.50555
*END

*EOF