File: XRD:XRR/LCO/22129_LCOT/22129_LCOT_XRR_2-Theta_Omega.asc
*TYPE		=  Raw
*CLASS		=  ASCII CLASS
*SAMPLE		=
*COMMENT	=
*FNAME		=  22129_LCOT_XRR_2-Theta_Omega.asc
*DATE		=  29-Aug-22 12:38

*GROUP_COUNT	=  1
*GONIO		=  SmartLab(In-plane), 0.000000
*ATTACHMENT	=  Z-Phi Stage
*ASC		=  0, 0, 0.000000, 0.000000
*I_MONOCHRO	=  Ge(220)x2, 0.000000
*FILTER		=  None
*C_MONOCHRO	=  None, 0.000000
*SLIT_NAME	=  0, Incident slit
*SLIT_NAME	=  1, Receiving slit # 1
*SLIT_NAME	=  2, Receiving slit # 2
*COUNTER	=  D/teX Ultra 250, 0
*POS_FORMAT	=  0
*SCAN_AXIS	=  2Theta/Omega
*MEAS_MODE	=  Continuous Scanning
*TARGET		=  29
*XRAY_CHAR	=  K-ALPHA1
*WAVE_LENGTH1	=  1.54059
*WAVE_LENGTH2	=  1.54441
*THICKNESS	=  0, 0.000000
*MU		=  0, 0.000000
*SCAN_MODE	=  2Theta/Omega
*SPEED_DIM	=  sec./step
*XUNIT		=  deg.
*YUNIT		=  counts
*SCALE_MODE	=  1
*REP_COUNT	=  0
*SE_COUNT	=  0
*STD_MATERIAL	=  Unknown, Unknown, 0.000000, 0.000000, 0.000000, 0.000000, 0.000000, 0.000000
*LATT_CONS	=  0, Unknown, Unknown, 0.000000, 0.000000, 0.000000, 0.000000, 0.000000, 0.000000
*SEC_COUNT	=  1
*TSPEC_SIZE	=  0
*EXTRA_SIZE	=  0
*MEMO		=

*BEGIN
*GROUP		=  0
*START		=  0.4
*STOP		=  4.5
*STEP		=  0.01
*OFFSET		=  -0.012700
*SPEED		=  20.6484
*SLIT_SPEC	=  0, 1.000mm, 1, 0.000000
*SLIT_SPEC	=  1, 1.000mm, 1, 0.000000
*SLIT_SPEC	=  2, 1.000mm, 1, 0.000000
*KV		=  40
*MA		=  30
*LOW		=  0.000000
*HIGH		=  0.000000
*CTEMPER	=  0, 0.000000
*CTEMPER	=  1, 0.000000
*CTEMPER	=  2, 0.000000
*PAREX		=  0, 0.000000
*PAREX		=  1, 0.000000
*PAREX		=  2, 0.000000
*PAREX		=  3, 0.000000
*PAREX		=  4, 0.000000
*PAREX		=  5, 0.000000
*PAREX		=  6, 0.000000
*PAREX		=  7, 0.000000
*PAREX		=  8, 0.000000
*PAREX		=  9, 0.000000
*PAREX		=  10, 0.000000
*PAREX		=  11, 0.000000
*PAREX		=  12, 0.000000
*PAREX		=  13, 0.000000
*PAREX		=  14, 0.000000
*PAREX		=  15, 0.000000
*FULL_SCALE	=  389514
*INDEX		=  0, 0, 0
*COUNT		=  411
5278050, 5391187, 5504128, 5617054.5
5719663.5, 5823470, 5929174, 6012803.5
6111202.5, 6198393, 6277455, 6360619.5
6430750.5, 6489542, 6546654, 6594025
6632385.5, 6655119, 6663951, 6669292
6647684, 6607748.5, 6545695.5, 6457700.5
6337312, 6192814.5, 6004037, 5790830.5
5563173, 5325884.5, 5088640, 4843293.5
4603295.5, 4360494.5, 4116485.3, 3868977.3
3623472.8, 3384009.8, 3139356.3, 2896888.8
2665325.3, 2438599.3, 2220043.8, 2011510.3
1817680.8, 1632125.6, 1459729.6, 1301846.6
1159051.1, 1027020.6, 909329, 804680
713537, 632813, 566342, 506125
456892, 416380, 383002, 356978
336695, 319979, 307034, 298905
293606, 290666, 288310, 287761
289078, 287832, 288824, 289034
290024, 288321, 287361, 285652
283593, 279380, 274870, 270909
264149, 257468, 250850, 242498
233393, 225623, 216504, 207205
197515, 186710, 177718, 167271
157442, 148237, 138737, 130070
121249, 113587, 105871, 98244
91245, 85539, 79518.5, 74285
69471.5, 65572.5, 61684.5, 58239
55708, 53095, 51228, 49980
49050, 47858.5, 47531.5, 46910.5
46844.5, 47236, 47478.5, 47759
47986.5, 48803.5, 49058, 49684.5
50473.5, 50843.5, 50903, 51571.5
51326.5, 51338, 51392.5, 51639
50955, 51291, 50697, 49612
49465, 48607, 47454.5, 46374
45543, 43800.5, 42917, 41220.5
39556.5, 38494, 37397, 35613
34056.5, 32062.5, 30743, 29295.5
27927, 26311, 25125.5, 23663
22337, 21064.5, 19966, 18769
17843.5, 17031.5, 16117, 15500.5
14865.5, 14322, 13917, 13150
12690.5, 12485.5, 12268, 12300.5
12007.5, 11944.5, 11956, 12122.5
12142, 12343.5, 12219.5, 12506.5
12671, 12615.5, 12746.5, 12781
13228, 13118, 13180, 13263.5
13256, 13640.5, 13276, 13511
13484.5, 13126, 13187.5, 12960
12988.5, 12664, 12354, 12063.5
11873, 11691, 11171, 11064
10888.5, 10431.5, 9868.5, 9764.5
9338.5, 9035.5, 8664, 8399
7837, 7574.5, 7250, 6965.5
6814, 6267.5, 6028, 5793
5502.5, 5328, 5182.5, 4889
4627.5, 4427, 4378, 4337.5
4192, 4104, 4039, 3997.5
3957.5, 3988, 3864.5, 3995.5
3818, 3967.5, 4059.5, 3875.5
4004, 3980, 4094.5, 4037.5
4162, 4149, 4160.5, 4281
4229.5, 4236.5, 4405, 4285.5
4219.5, 4154, 4156.5, 4129.5
4195.5, 4096, 4096, 3924.5
3999.5, 3932.5, 3749, 3827
3676.5, 3609.5, 3448.5, 3294
3285, 3157.5, 3029, 2943.5
2802.5, 2735.5, 2689.5, 2533.5
2564.5, 2405, 2310.5, 2293.5
2188, 2080, 2061.5, 1915.5
1881.5, 1807.5, 1764.5, 1745
1738, 1665.5, 1573.5, 1619.5
1536.5, 1526, 1553, 1569.5
1520.5, 1586, 1600.5, 1569
1515.5, 1616, 1584.5, 1621
1572, 1503.5, 1547.5, 1606
1657, 1667, 1686, 1578.5
1678.5, 1627.5, 1627.5, 1673.5
1641, 1660, 1652, 1578.5
1669, 1547.5, 1558, 1582
1516.5, 1485, 1497, 1510
1503.5, 1365.5, 1415.5, 1375
1277.5, 1332.5, 1300, 1230
1149, 1169, 1168.5, 1127
1029.5, 1035, 1037, 995.5
1001, 961, 919.5, 879.5
909.5, 862.5, 905.5, 827
833, 787.5, 859.5, 809
826.5, 781, 796.5, 794.5
755.5, 803.5, 783, 760
757.5, 807, 842.5, 758.999
767.001, 823.999, 809, 817
883, 865.501, 879, 834.5
815, 877, 921.5, 807
866.5, 904, 838, 835
800.5, 868.5, 852, 868
851, 842.5, 786.5, 747
746.5, 740.5, 790.5, 747.5
770.5, 703.5, 681.5, 687.5
724, 686, 596, 613
647.5, 648.501, 635, 581.5
629.5, 544.5, 568.5
*END

*EOF