File: XRD:XRR/CSV/A_22129_LCOT_XRD_200.csv
#twotheta, yobs, ycal, bkg, diff
42.0,23.0,1.0,1.0,1.0
42.04,16.0,1.0,1.0,1.0
42.08,34.0,1.0,1.0,1.0
42.12,23.0111,1.0,1.0,1.0
42.16,19.0,1.0,1.0,1.0
42.2,32.4944,1.0,1.0,1.0
42.24,33.4944,1.0,1.0,1.0
42.28,53.0,1.0,1.0,1.0
42.32,23.0,1.0,1.0,1.0
42.36,29.5056,1.0,1.0,1.0
42.4,47.4944,1.0,1.0,1.0
42.44,34.0,1.0,1.0,1.0
42.48,31.4944,1.0,1.0,1.0
42.52,39.4944,1.0,1.0,1.0
42.56,29.0,1.0,1.0,1.0
42.6,27.4944,1.0,1.0,1.0
42.64,22.0,1.0,1.0,1.0
42.68,22.5056,1.0,1.0,1.0
42.72,29.4944,1.0,1.0,1.0
42.76,23.4944,1.0,1.0,1.0
42.8,38.4944,1.0,1.0,1.0
42.84,33.5056,1.0,1.0,1.0
42.88,53.9889,1.0,1.0,1.0
42.92,38.0,1.0,1.0,1.0
42.96,55.0111,1.0,1.0,1.0
43.0,56.4833,1.0,1.0,1.0
43.04,61.9889,1.0,1.0,1.0
43.08,60.4944,1.0,1.0,1.0
43.12,67.4944,1.0,1.0,1.0
43.16,49.0,1.0,1.0,1.0
43.2,68.5056,1.0,1.0,1.0
43.24,58.4944,1.0,1.0,1.0
43.28,45.0111,1.0,1.0,1.0
43.32,42.9889,1.0,1.0,1.0
43.36,44.5056,1.0,1.0,1.0
43.4,22.0,1.0,1.0,1.0
43.44,26.0,1.0,1.0,1.0
43.48,39.5056,1.0,1.0,1.0
43.52,34.0,1.0,1.0,1.0
43.56,48.5056,1.0,1.0,1.0
43.6,69.0111,1.0,1.0,1.0
43.64,68.4833,1.0,1.0,1.0
43.68,83.5167,1.0,1.0,1.0
43.72,105.4944,1.0,1.0,1.0
43.76,120.5056,1.0,1.0,1.0
43.8,108.0,1.0,1.0,1.0
43.84,102.5056,1.0,1.0,1.0
43.88,105.9889,1.0,1.0,1.0
43.92,128.5056,1.0,1.0,1.0
43.96,84.5056,1.0,1.0,1.0
44.0,86.0,1.0,1.0,1.0
44.04,65.0111,1.0,1.0,1.0
44.08,47.0,1.0,1.0,1.0
44.12,37.4944,1.0,1.0,1.0
44.16,40.0,1.0,1.0,1.0
44.2,45.5167,1.0,1.0,1.0
44.24,86.0111,1.0,1.0,1.0
44.28,82.5056,1.0,1.0,1.0
44.32,107.4944,1.0,1.0,1.0
44.36,167.5167,1.0,1.0,1.0
44.4,167.0222,1.0,1.0,1.0
44.44,169.0111,1.0,1.0,1.0
44.48,210.5278,1.0,1.0,1.0
44.52,208.4722,1.0,1.0,1.0
44.56,205.4944,1.0,1.0,1.0
44.6,223.0,1.0,1.0,1.0
44.64,229.0,1.0,1.0,1.0
44.68,160.5056,1.0,1.0,1.0
44.72,185.5278,1.0,1.0,1.0
44.76,135.9889,1.0,1.0,1.0
44.8,96.4833,1.0,1.0,1.0
44.84,85.9889,1.0,1.0,1.0
44.88,71.0,1.0,1.0,1.0
44.92,66.5056,1.0,1.0,1.0
44.96,107.0111,1.0,1.0,1.0
45.0,145.4944,1.0,1.0,1.0
45.04,196.0111,1.0,1.0,1.0
45.08,285.0222,1.0,1.0,1.0
45.12,350.4833,1.0,1.0,1.0
45.16,399.0222,1.0,1.0,1.0
45.2,520.5167,1.0,1.0,1.0
45.24,501.4944,1.0,1.0,1.0
45.28,548.9889,1.0,1.0,1.0
45.32,612.45,1.0,1.0,1.0
45.36,519.9889,1.0,1.0,1.0
45.4,496.0,1.0,1.0,1.0
45.44,457.9889,1.0,1.0,1.0
45.48,319.4944,1.0,1.0,1.0
45.52,268.5056,1.0,1.0,1.0
45.56,175.0111,1.0,1.0,1.0
45.6,130.9889,1.0,1.0,1.0
45.64,99.0,1.0,1.0,1.0
45.68,161.0,1.0,1.0,1.0
45.72,287.4944,1.0,1.0,1.0
45.76,405.9667,1.0,1.0,1.0
45.8,683.0,1.0,1.0,1.0
45.84,982.9889,1.0,1.0,1.0
45.88,1353.02,1.0,1.0,1.0
45.92,1725.49,1.0,1.0,1.0
45.96,2135.66,1.0,1.0,1.0
46.0,2621.09,1.0,1.0,1.0
46.04,3009.9,1.0,1.0,1.0
46.08,3221.03,1.0,1.0,1.0
46.12,3638.03,1.0,1.0,1.0
46.16,3952.45,1.0,1.0,1.0
46.2,3909.42,1.0,1.0,1.0
46.24,4092.45,1.0,1.0,1.0
46.28,4553.65,1.0,1.0,1.0
46.32,5668.37,1.0,1.0,1.0
46.36,10344.7,1.0,1.0,1.0
46.4,40826,1.0,1.0,1.0
46.44,303813,1.0,1.0,1.0
46.48,47661400.0,1.0,1.0,1.0
46.52,1133229.375,1.0,1.0,1.0
46.56,251374,1.0,1.0,1.0
46.6,94041.1,1.0,1.0,1.0
46.64,65027.418,1.0,1.0,1.0
46.68,52689.9,1.0,1.0,1.0
46.72,45815.8,1.0,1.0,1.0
46.76,40812.7,1.0,1.0,1.0
46.8,37911.6,1.0,1.0,1.0
46.84,35302.9,1.0,1.0,1.0
46.88,32677.2,1.0,1.0,1.0
46.92,30643.1,1.0,1.0,1.0
46.96,28418.2,1.0,1.0,1.0
47.0,26401.4,1.0,1.0,1.0
47.04,24086.6,1.0,1.0,1.0
47.08,21491.6,1.0,1.0,1.0
47.12,19220.166,1.0,1.0,1.0
47.16,16740.8,1.0,1.0,1.0
47.2,14319,1.0,1.0,1.0
47.24,11977.7,1.0,1.0,1.0
47.28,10041,1.0,1.0,1.0
47.32,8001.14,1.0,1.0,1.0
47.36,6095.561,1.0,1.0,1.0
47.4,4524.561,1.0,1.0,1.0
47.44,3298.06,1.0,1.0,1.0
47.48,2256.98,1.0,1.0,1.0
47.52,1344.02,1.0,1.0,1.0
47.56,838.9889,1.0,1.0,1.0
47.6,464.5389,1.0,1.0,1.0
47.64,273.0,1.0,1.0,1.0
47.68,231.0111,1.0,1.0,1.0
47.72,249.5167,1.0,1.0,1.0
47.76,417.5056,1.0,1.0,1.0
47.8,497.9778,1.0,1.0,1.0
47.84,698.0444,1.0,1.0,1.0
47.88,857.0333,1.0,1.0,1.0
47.92,916.0222,1.0,1.0,1.0
47.96,980.9889,1.0,1.0,1.0
48.0,906.9556,1.0,1.0,1.0
48.04,882.5278,1.0,1.0,1.0
48.08,798.5167,1.0,1.0,1.0
48.12,746.4833,1.0,1.0,1.0
48.16,577.0,1.0,1.0,1.0
48.2,476.9889,1.0,1.0,1.0
48.24,312.5056,1.0,1.0,1.0
48.28,251.4944,1.0,1.0,1.0
48.32,200.5056,1.0,1.0,1.0
48.36,115.9889,1.0,1.0,1.0
48.4,82.4833,1.0,1.0,1.0
48.44,96.0,1.0,1.0,1.0
48.48,74.4833,1.0,1.0,1.0
48.52,110.0111,1.0,1.0,1.0
48.56,160.0,1.0,1.0,1.0
48.6,162.5056,1.0,1.0,1.0
48.64,205.5167,1.0,1.0,1.0
48.68,234.0,1.0,1.0,1.0
48.72,259.0,1.0,1.0,1.0
48.76,264.0333,1.0,1.0,1.0
48.8,248.0111,1.0,1.0,1.0
48.84,271.0222,1.0,1.0,1.0
48.88,177.0,1.0,1.0,1.0
48.92,172.4944,1.0,1.0,1.0
48.96,156.0111,1.0,1.0,1.0
49.0,107.5056,1.0,1.0,1.0
49.04,76.0,1.0,1.0,1.0
49.08,68.4833,1.0,1.0,1.0
49.12,64.0,1.0,1.0,1.0
49.16,45.5056,1.0,1.0,1.0
49.2,40.0,1.0,1.0,1.0
49.24,41.0111,1.0,1.0,1.0
49.28,75.5056,1.0,1.0,1.0
49.32,75.0,1.0,1.0,1.0
49.36,51.9889,1.0,1.0,1.0
49.4,69.0,1.0,1.0,1.0
49.44,66.5056,1.0,1.0,1.0
49.48,81.0,1.0,1.0,1.0
49.52,104.9889,1.0,1.0,1.0
49.56,84.0111,1.0,1.0,1.0
49.6,94.0111,1.0,1.0,1.0
49.64,51.4944,1.0,1.0,1.0
49.68,64.0,1.0,1.0,1.0
49.72,52.4833,1.0,1.0,1.0
49.76,50.0,1.0,1.0,1.0
49.8,42.9889,1.0,1.0,1.0
49.84,56.5056,1.0,1.0,1.0
49.88,21.4833,1.0,1.0,1.0
49.92,24.9889,1.0,1.0,1.0
49.96,33.5167,1.0,1.0,1.0
50.0,34.5056,1.0,1.0,1.0
50.04,37.0,1.0,1.0,1.0
50.08,27.0,1.0,1.0,1.0
50.12,32.0111,1.0,1.0,1.0
50.16,30.0,1.0,1.0,1.0
50.2,59.0,1.0,1.0,1.0
50.24,31.4944,1.0,1.0,1.0
50.28,39.0,1.0,1.0,1.0
50.32,36.9889,1.0,1.0,1.0
50.36,20.0,1.0,1.0,1.0
50.4,26.0,1.0,1.0,1.0
50.44,33.4944,1.0,1.0,1.0
50.48,18.5056,1.0,1.0,1.0
50.52,25.0,1.0,1.0,1.0
50.56,40.4833,1.0,1.0,1.0
50.6,24.0,1.0,1.0,1.0
50.64,18.4944,1.0,1.0,1.0
50.68,9.0,1.0,1.0,1.0
50.72,11.0,1.0,1.0,1.0
50.76,23.0,1.0,1.0,1.0
50.8,21.5056,1.0,1.0,1.0
50.84,30.0,1.0,1.0,1.0
50.88,51.0111,1.0,1.0,1.0
50.92,15.0,1.0,1.0,1.0
50.96,25.0,1.0,1.0,1.0
51.0,18.0,1.0,1.0,1.0
51.04,7.4944,1.0,1.0,1.0
51.08,8.0,1.0,1.0,1.0
51.12,7.0,1.0,1.0,1.0
51.16,23.5056,1.0,1.0,1.0
51.2,20.0,1.0,1.0,1.0
51.24,13.5056,1.0,1.0,1.0
51.28,14.9889,1.0,1.0,1.0
51.32,13.5056,1.0,1.0,1.0
51.36,8.0,1.0,1.0,1.0
51.4,6.0,1.0,1.0,1.0
51.44,10.9889,1.0,1.0,1.0
51.48,24.0,1.0,1.0,1.0
51.52,11.5056,1.0,1.0,1.0
51.56,4.0,1.0,1.0,1.0
51.6,13.4944,1.0,1.0,1.0
51.64,3.4944,1.0,1.0,1.0
51.68,12.0,1.0,1.0,1.0
51.72,7.4944,1.0,1.0,1.0
51.76,7.0,1.0,1.0,1.0
51.8,16.0,1.0,1.0,1.0
51.84,14.0,1.0,1.0,1.0
51.88,4.5056,1.0,1.0,1.0
51.92,2.0,1.0,1.0,1.0
51.96,11.0,1.0,1.0,1.0
52.0,9.5056,1.0,1.0,1.0