File: XRD:XRR/CSV/D_22128_LCOL_XRD_200.csv
#twotheta, yobs, ycal, bkg, diff
42.0,6.5056,1.0,1.0,1.0
42.04,1.4944,1.0,1.0,1.0
42.08,14.0,1.0,1.0,1.0
42.12,5.0,1.0,1.0,1.0
42.16,15.0,1.0,1.0,1.0
42.2,14.0,1.0,1.0,1.0
42.24,9.0,1.0,1.0,1.0
42.28,7.0,1.0,1.0,1.0
42.32,17.5167,1.0,1.0,1.0
42.36,9.4944,1.0,1.0,1.0
42.4,27.4944,1.0,1.0,1.0
42.44,9.0,1.0,1.0,1.0
42.48,13.0,1.0,1.0,1.0
42.52,13.5056,1.0,1.0,1.0
42.56,5.0,1.0,1.0,1.0
42.6,3.5056,1.0,1.0,1.0
42.64,12.5056,1.0,1.0,1.0
42.68,10.5056,1.0,1.0,1.0
42.72,15.5056,1.0,1.0,1.0
42.76,13.0,1.0,1.0,1.0
42.8,14.9889,1.0,1.0,1.0
42.84,2.0,1.0,1.0,1.0
42.88,7.0,1.0,1.0,1.0
42.92,12.0,1.0,1.0,1.0
42.96,11.0,1.0,1.0,1.0
43.0,14.4944,1.0,1.0,1.0
43.04,3.0,1.0,1.0,1.0
43.08,2.4944,1.0,1.0,1.0
43.12,14.0,1.0,1.0,1.0
43.16,8.0,1.0,1.0,1.0
43.2,8.4944,1.0,1.0,1.0
43.24,11.0,1.0,1.0,1.0
43.28,11.0,1.0,1.0,1.0
43.32,7.4944,1.0,1.0,1.0
43.36,11.0,1.0,1.0,1.0
43.4,19.9889,1.0,1.0,1.0
43.44,10.4944,1.0,1.0,1.0
43.48,32.0111,1.0,1.0,1.0
43.52,17.4944,1.0,1.0,1.0
43.56,37.4944,1.0,1.0,1.0
43.6,42.0,1.0,1.0,1.0
43.64,20.0,1.0,1.0,1.0
43.68,15.5056,1.0,1.0,1.0
43.72,16.0,1.0,1.0,1.0
43.76,20.0,1.0,1.0,1.0
43.8,13.4944,1.0,1.0,1.0
43.84,14.0,1.0,1.0,1.0
43.88,10.4944,1.0,1.0,1.0
43.92,5.0,1.0,1.0,1.0
43.96,5.0,1.0,1.0,1.0
44.0,13.0,1.0,1.0,1.0
44.04,27.0,1.0,1.0,1.0
44.08,30.5056,1.0,1.0,1.0
44.12,33.0,1.0,1.0,1.0
44.16,29.5056,1.0,1.0,1.0
44.2,56.0111,1.0,1.0,1.0
44.24,71.0111,1.0,1.0,1.0
44.28,49.5056,1.0,1.0,1.0
44.32,67.0111,1.0,1.0,1.0
44.36,40.5056,1.0,1.0,1.0
44.4,36.5056,1.0,1.0,1.0
44.44,23.0,1.0,1.0,1.0
44.48,29.0,1.0,1.0,1.0
44.52,20.0,1.0,1.0,1.0
44.56,4.4944,1.0,1.0,1.0
44.6,11.0,1.0,1.0,1.0
44.64,17.9889,1.0,1.0,1.0
44.68,22.9889,1.0,1.0,1.0
44.72,76.0111,1.0,1.0,1.0
44.76,58.9889,1.0,1.0,1.0
44.8,102.5056,1.0,1.0,1.0
44.84,124.0111,1.0,1.0,1.0
44.88,151.4944,1.0,1.0,1.0
44.92,185.4944,1.0,1.0,1.0
44.96,138.4944,1.0,1.0,1.0
45.0,165.0111,1.0,1.0,1.0
45.04,151.0,1.0,1.0,1.0
45.08,106.9889,1.0,1.0,1.0
45.12,89.9889,1.0,1.0,1.0
45.16,59.5056,1.0,1.0,1.0
45.2,76.0,1.0,1.0,1.0
45.24,41.0,1.0,1.0,1.0
45.28,64.9889,1.0,1.0,1.0
45.32,99.4833,1.0,1.0,1.0
45.36,219.9889,1.0,1.0,1.0
45.4,390.0,1.0,1.0,1.0
45.44,544.9778,1.0,1.0,1.0
45.48,877.0,1.0,1.0,1.0
45.52,1248.0,1.0,1.0,1.0
45.56,1549.96,1.0,1.0,1.0
45.6,2013.51,1.0,1.0,1.0
45.64,2532.08,1.0,1.0,1.0
45.68,2963.99,1.0,1.0,1.0
45.72,3480.46,1.0,1.0,1.0
45.76,4006.41,1.0,1.0,1.0
45.8,4365.98,1.0,1.0,1.0
45.84,4676.98,1.0,1.0,1.0
45.88,5122.89,1.0,1.0,1.0
45.92,5198.36,1.0,1.0,1.0
45.96,5395.189,1.0,1.0,1.0
46.0,5395.49,1.0,1.0,1.0
46.04,5104.93,1.0,1.0,1.0
46.08,4974.93,1.0,1.0,1.0
46.12,4671.09,1.0,1.0,1.0
46.16,4284.38,1.0,1.0,1.0
46.2,3801.62,1.0,1.0,1.0
46.24,3218.59,1.0,1.0,1.0
46.28,2761.0,1.0,1.0,1.0
46.32,2244.42,1.0,1.0,1.0
46.36,1794.06,1.0,1.0,1.0
46.4,1373.11,1.0,1.0,1.0
46.44,944.5167,1.0,1.0,1.0
46.48,636.4944,1.0,1.0,1.0
46.52,454.4722,1.0,1.0,1.0
46.56,242.4944,1.0,1.0,1.0
46.6,193.9778,1.0,1.0,1.0
46.64,165.0111,1.0,1.0,1.0
46.68,210.0,1.0,1.0,1.0
46.72,254.0333,1.0,1.0,1.0
46.76,268.4944,1.0,1.0,1.0
46.8,354.4833,1.0,1.0,1.0
46.84,456.5056,1.0,1.0,1.0
46.88,485.5056,1.0,1.0,1.0
46.92,518.4833,1.0,1.0,1.0
46.96,556.9778,1.0,1.0,1.0
47.0,518.9667,1.0,1.0,1.0
47.04,485.4833,1.0,1.0,1.0
47.08,429.5167,1.0,1.0,1.0
47.12,405.5056,1.0,1.0,1.0
47.16,335.5056,1.0,1.0,1.0
47.2,311.5167,1.0,1.0,1.0
47.24,274.5167,1.0,1.0,1.0
47.28,267.4944,1.0,1.0,1.0
47.32,248.4833,1.0,1.0,1.0
47.36,318.5278,1.0,1.0,1.0
47.4,325.9889,1.0,1.0,1.0
47.44,456.9778,1.0,1.0,1.0
47.48,581.5389,1.0,1.0,1.0
47.52,649.9778,1.0,1.0,1.0
47.56,832.9333,1.0,1.0,1.0
47.6,1006.54,1.0,1.0,1.0
47.64,1157.54,1.0,1.0,1.0
47.68,1420.97,1.0,1.0,1.0
47.72,1712.07,1.0,1.0,1.0
47.76,2301.53,1.0,1.0,1.0
47.8,3095.38,1.0,1.0,1.0
47.84,5276.46,1.0,1.0,1.0
47.88,11950.7,1.0,1.0,1.0
47.92,272337,1.0,1.0,1.0
47.96,1397264.25,1.0,1.0,1.0
48.0,1952360.25,1.0,1.0,1.0
48.04,53500,1.0,1.0,1.0
48.08,12736.6,1.0,1.0,1.0
48.12,4797.22,1.0,1.0,1.0
48.16,2362.03,1.0,1.0,1.0
48.2,1422.57,1.0,1.0,1.0
48.24,947.0333,1.0,1.0,1.0
48.28,599.5056,1.0,1.0,1.0
48.32,441.5167,1.0,1.0,1.0
48.36,319.4722,1.0,1.0,1.0
48.4,266.4944,1.0,1.0,1.0
48.44,218.0111,1.0,1.0,1.0
48.48,198.0222,1.0,1.0,1.0
48.52,168.0111,1.0,1.0,1.0
48.56,170.5167,1.0,1.0,1.0
48.6,129.0,1.0,1.0,1.0
48.64,119.5056,1.0,1.0,1.0
48.68,124.5056,1.0,1.0,1.0
48.72,111.5167,1.0,1.0,1.0
48.76,92.9778,1.0,1.0,1.0
48.8,78.0,1.0,1.0,1.0
48.84,67.5056,1.0,1.0,1.0
48.88,51.5167,1.0,1.0,1.0
48.92,54.5056,1.0,1.0,1.0
48.96,34.5056,1.0,1.0,1.0
49.0,44.4944,1.0,1.0,1.0
49.04,25.0111,1.0,1.0,1.0
49.08,32.5056,1.0,1.0,1.0
49.12,19.0,1.0,1.0,1.0
49.16,23.0,1.0,1.0,1.0
49.2,22.0,1.0,1.0,1.0
49.24,11.0,1.0,1.0,1.0
49.28,20.4944,1.0,1.0,1.0
49.32,33.4944,1.0,1.0,1.0
49.36,29.5056,1.0,1.0,1.0
49.4,20.0,1.0,1.0,1.0
49.44,11.0,1.0,1.0,1.0
49.48,22.0,1.0,1.0,1.0
49.52,14.5056,1.0,1.0,1.0
49.56,12.0,1.0,1.0,1.0
49.6,19.0,1.0,1.0,1.0
49.64,25.0,1.0,1.0,1.0
49.68,11.0,1.0,1.0,1.0
49.72,15.0,1.0,1.0,1.0
49.76,3.4944,1.0,1.0,1.0
49.8,7.0,1.0,1.0,1.0
49.84,7.0,1.0,1.0,1.0
49.88,24.0,1.0,1.0,1.0
49.92,2.0,1.0,1.0,1.0
49.96,17.5056,1.0,1.0,1.0
50.0,4.0,1.0,1.0,1.0
50.04,13.0,1.0,1.0,1.0
50.08,16.0,1.0,1.0,1.0
50.12,3.5056,1.0,1.0,1.0
50.16,2.4944,1.0,1.0,1.0
50.2,19.0,1.0,1.0,1.0
50.24,5.0,1.0,1.0,1.0
50.28,9.0,1.0,1.0,1.0
50.32,9.0,1.0,1.0,1.0
50.36,8.0,1.0,1.0,1.0
50.4,2.0,1.0,1.0,1.0
50.44,12.0,1.0,1.0,1.0
50.48,4.0,1.0,1.0,1.0
50.52,12.0,1.0,1.0,1.0
50.56,9.0,1.0,1.0,1.0
50.6,12.0,1.0,1.0,1.0
50.64,3.0,1.0,1.0,1.0
50.68,4.0,1.0,1.0,1.0
50.72,15.0,1.0,1.0,1.0
50.76,7.0,1.0,1.0,1.0
50.8,5.0,1.0,1.0,1.0
50.84,7.5056,1.0,1.0,1.0
50.88,10.0,1.0,1.0,1.0
50.92,4.0,1.0,1.0,1.0
50.96,3.0,1.0,1.0,1.0
51.0,2.5056,1.0,1.0,1.0
51.04,10.0,1.0,1.0,1.0
51.08,3.5056,1.0,1.0,1.0
51.12,5.0,1.0,1.0,1.0
51.16,8.0,1.0,1.0,1.0
51.2,11.0,1.0,1.0,1.0
51.24,8.0,1.0,1.0,1.0
51.28,3.0,1.0,1.0,1.0
51.32,4.4944,1.0,1.0,1.0
51.36,7.9889,1.0,1.0,1.0
51.4,10.4944,1.0,1.0,1.0
51.44,7.0,1.0,1.0,1.0
51.48,8.5056,1.0,1.0,1.0
51.52,6.0,1.0,1.0,1.0
51.56,5.0,1.0,1.0,1.0
51.6,7.5056,1.0,1.0,1.0
51.64,6.0,1.0,1.0,1.0
51.68,4.0,1.0,1.0,1.0
51.72,7.0,1.0,1.0,1.0
51.76,8.0,1.0,1.0,1.0
51.8,6.0,1.0,1.0,1.0
51.84,9.0,1.0,1.0,1.0
51.88,5.0,1.0,1.0,1.0
51.92,3.5056,1.0,1.0,1.0
51.96,4.0,1.0,1.0,1.0
52.0,2.0,1.0,1.0,1.0