File: XRD:XRR/SCO/22167_SL(CO)L/22167_SL(CO)L_001_XRD.csv
#twotheta, yobs, ycal, bkg, diff
17.0,39.0,1.0,1.0,1.0
17.05,21.992,1.0,1.0,1.0
17.1,28.504,1.0,1.0,1.0
17.15,36.992,1.0,1.0,1.0
17.2,46.496,1.0,1.0,1.0
17.25,39.504,1.0,1.0,1.0
17.3,42.008,1.0,1.0,1.0
17.35,26.0,1.0,1.0,1.0
17.4,23.0,1.0,1.0,1.0
17.45,34.0,1.0,1.0,1.0
17.5,47.504,1.0,1.0,1.0
17.55,36.504,1.0,1.0,1.0
17.6,36.504,1.0,1.0,1.0
17.65,23.504,1.0,1.0,1.0
17.7,30.008,1.0,1.0,1.0
17.75,36.496,1.0,1.0,1.0
17.8,33.992,1.0,1.0,1.0
17.85,38.0,1.0,1.0,1.0
17.9,42.0,1.0,1.0,1.0
17.95,52.008,1.0,1.0,1.0
18.0,44.0,1.0,1.0,1.0
18.05,46.0,1.0,1.0,1.0
18.1,55.504,1.0,1.0,1.0
18.15,39.008,1.0,1.0,1.0
18.2,32.496,1.0,1.0,1.0
18.25,39.008,1.0,1.0,1.0
18.3,34.0,1.0,1.0,1.0
18.35,43.0,1.0,1.0,1.0
18.4,35.008,1.0,1.0,1.0
18.45,40.0159,1.0,1.0,1.0
18.5,15.992,1.0,1.0,1.0
18.55,26.0,1.0,1.0,1.0
18.6,39.496,1.0,1.0,1.0
18.65,28.496,1.0,1.0,1.0
18.7,30.496,1.0,1.0,1.0
18.75,46.504,1.0,1.0,1.0
18.8,48.0,1.0,1.0,1.0
18.85,22.504,1.0,1.0,1.0
18.9,25.496,1.0,1.0,1.0
18.95,42.992,1.0,1.0,1.0
19.0,45.504,1.0,1.0,1.0
19.05,50.0,1.0,1.0,1.0
19.1,45.5119,1.0,1.0,1.0
19.15,48.0,1.0,1.0,1.0
19.2,53.5119,1.0,1.0,1.0
19.25,49.0,1.0,1.0,1.0
19.3,47.504,1.0,1.0,1.0
19.35,39.0,1.0,1.0,1.0
19.4,38.504,1.0,1.0,1.0
19.45,43.992,1.0,1.0,1.0
19.5,42.504,1.0,1.0,1.0
19.55,36.008,1.0,1.0,1.0
19.6,64.0,1.0,1.0,1.0
19.65,51.496,1.0,1.0,1.0
19.7,68.992,1.0,1.0,1.0
19.75,64.5119,1.0,1.0,1.0
19.8,73.0,1.0,1.0,1.0
19.85,101.4881,1.0,1.0,1.0
19.9,112.504,1.0,1.0,1.0
19.95,97.504,1.0,1.0,1.0
20.0,71.504,1.0,1.0,1.0
20.05,62.992,1.0,1.0,1.0
20.1,53.992,1.0,1.0,1.0
20.15,38.504,1.0,1.0,1.0
20.2,48.496,1.0,1.0,1.0
20.25,62.0159,1.0,1.0,1.0
20.3,38.0,1.0,1.0,1.0
20.35,41.0,1.0,1.0,1.0
20.4,36.0,1.0,1.0,1.0
20.45,35.008,1.0,1.0,1.0
20.5,23.496,1.0,1.0,1.0
20.55,37.496,1.0,1.0,1.0
20.6,40.008,1.0,1.0,1.0
20.65,54.504,1.0,1.0,1.0
20.7,58.496,1.0,1.0,1.0
20.75,68.0,1.0,1.0,1.0
20.8,67.992,1.0,1.0,1.0
20.85,47.496,1.0,1.0,1.0
20.9,55.008,1.0,1.0,1.0
20.95,39.504,1.0,1.0,1.0
21.0,46.992,1.0,1.0,1.0
21.05,56.0,1.0,1.0,1.0
21.1,54.008,1.0,1.0,1.0
21.15,38.496,1.0,1.0,1.0
21.2,52.496,1.0,1.0,1.0
21.25,60.008,1.0,1.0,1.0
21.3,96.504,1.0,1.0,1.0
21.35,101.008,1.0,1.0,1.0
21.4,177.504,1.0,1.0,1.0
21.45,210.4801,1.0,1.0,1.0
21.5,242.008,1.0,1.0,1.0
21.55,393.4881,1.0,1.0,1.0
21.6,657.496,1.0,1.0,1.0
21.65,715.0159,1.0,1.0,1.0
21.7,1054.02,1.0,1.0,1.0
21.75,1621.53,1.0,1.0,1.0
21.8,2196.02,1.0,1.0,1.0
21.85,2467.55,1.0,1.0,1.0
21.9,1854.99,1.0,1.0,1.0
21.95,1144.97,1.0,1.0,1.0
22.0,665.488,1.0,1.0,1.0
22.05,561.512,1.0,1.0,1.0
22.1,430.9841,1.0,1.0,1.0
22.15,275.4881,1.0,1.0,1.0
22.2,179.5119,1.0,1.0,1.0
22.25,228.0,1.0,1.0,1.0
22.3,183.5119,1.0,1.0,1.0
22.35,204.4801,1.0,1.0,1.0
22.4,343.504,1.0,1.0,1.0
22.45,580.9921,1.0,1.0,1.0
22.5,740.0079,1.0,1.0,1.0
22.55,1214.02,1.0,1.0,1.0
22.6,2050.54,1.0,1.0,1.0
22.65,2927.48,1.0,1.0,1.0
22.7,4121.07,1.0,1.0,1.0
22.75,6520.54,1.0,1.0,1.0
22.8,9403.55,1.0,1.0,1.0
22.85,10516.9,1.0,1.0,1.0
22.9,8298.02,1.0,1.0,1.0
22.95,4675.47,1.0,1.0,1.0
23.0,2881.55,1.0,1.0,1.0
23.05,3487.488,1.0,1.0,1.0
23.1,3658.99,1.0,1.0,1.0
23.15,3158.0,1.0,1.0,1.0
23.2,3682.06,1.0,1.0,1.0
23.25,5239.08,1.0,1.0,1.0
23.3,7869.05,1.0,1.0,1.0
23.35,15418.2,1.0,1.0,1.0
23.4,56957.4,1.0,1.0,1.0
23.45,1765208.875,1.0,1.0,1.0
23.5,569213.875,1.0,1.0,1.0
23.55,47554.9,1.0,1.0,1.0
23.6,8898.39,1.0,1.0,1.0
23.65,3544.46,1.0,1.0,1.0
23.7,1845.52,1.0,1.0,1.0
23.75,1193.01,1.0,1.0,1.0
23.8,985.4642,1.0,1.0,1.0
23.85,1069.52,1.0,1.0,1.0
23.9,1037.53,1.0,1.0,1.0
23.95,755.512,1.0,1.0,1.0
24.0,583.488,1.0,1.0,1.0
24.05,414.504,1.0,1.0,1.0
24.1,286.008,1.0,1.0,1.0
24.15,276.496,1.0,1.0,1.0
24.2,195.4881,1.0,1.0,1.0
24.25,203.0,1.0,1.0,1.0
24.3,176.4721,1.0,1.0,1.0
24.35,147.992,1.0,1.0,1.0
24.4,134.504,1.0,1.0,1.0
24.45,161.0,1.0,1.0,1.0
24.5,133.4881,1.0,1.0,1.0
24.55,148.504,1.0,1.0,1.0
24.6,105.0,1.0,1.0,1.0
24.65,150.496,1.0,1.0,1.0
24.7,140.4801,1.0,1.0,1.0
24.75,112.0,1.0,1.0,1.0
24.8,81.0,1.0,1.0,1.0
24.85,38.504,1.0,1.0,1.0
24.9,31.496,1.0,1.0,1.0
24.95,43.0,1.0,1.0,1.0
25.0,38.0,1.0,1.0,1.0
25.05,27.992,1.0,1.0,1.0
25.1,36.0,1.0,1.0,1.0
25.15,45.504,1.0,1.0,1.0
25.2,50.504,1.0,1.0,1.0
25.25,29.992,1.0,1.0,1.0
25.3,48.0,1.0,1.0,1.0
25.35,41.0,1.0,1.0,1.0
25.4,39.0,1.0,1.0,1.0
25.45,19.0,1.0,1.0,1.0
25.5,32.0,1.0,1.0,1.0
25.55,36.504,1.0,1.0,1.0
25.6,23.496,1.0,1.0,1.0
25.65,21.0,1.0,1.0,1.0
25.7,12.496,1.0,1.0,1.0
25.75,14.992,1.0,1.0,1.0
25.8,23.504,1.0,1.0,1.0
25.85,30.504,1.0,1.0,1.0
25.9,18.0,1.0,1.0,1.0
25.95,43.504,1.0,1.0,1.0
26.0,17.496,1.0,1.0,1.0
26.05,17.504,1.0,1.0,1.0
26.1,19.496,1.0,1.0,1.0
26.15,9.504,1.0,1.0,1.0
26.2,25.992,1.0,1.0,1.0
26.25,23.0,1.0,1.0,1.0
26.3,20.008,1.0,1.0,1.0
26.35,34.0,1.0,1.0,1.0
26.4,23.496,1.0,1.0,1.0
26.45,16.0,1.0,1.0,1.0
26.5,26.0,1.0,1.0,1.0
26.55,32.504,1.0,1.0,1.0
26.6,22.0,1.0,1.0,1.0
26.65,25.504,1.0,1.0,1.0
26.7,16.0,1.0,1.0,1.0
26.75,31.0,1.0,1.0,1.0
26.8,11.0,1.0,1.0,1.0
26.85,13.496,1.0,1.0,1.0
26.9,10.0,1.0,1.0,1.0
26.95,17.0,1.0,1.0,1.0
27.0,24.0,1.0,1.0,1.0
27.05,28.504,1.0,1.0,1.0
27.1,12.0,1.0,1.0,1.0
27.15,21.0,1.0,1.0,1.0
27.2,23.0,1.0,1.0,1.0
27.25,21.008,1.0,1.0,1.0
27.3,11.0,1.0,1.0,1.0
27.35,20.0,1.0,1.0,1.0
27.4,20.496,1.0,1.0,1.0
27.45,21.504,1.0,1.0,1.0
27.5,9.504,1.0,1.0,1.0
27.55,22.496,1.0,1.0,1.0
27.6,13.0,1.0,1.0,1.0
27.65,15.0,1.0,1.0,1.0
27.7,11.0,1.0,1.0,1.0
27.75,17.0,1.0,1.0,1.0
27.8,7.0,1.0,1.0,1.0
27.85,19.008,1.0,1.0,1.0
27.9,19.008,1.0,1.0,1.0
27.95,20.0,1.0,1.0,1.0
28.0,22.504,1.0,1.0,1.0
28.05,26.0,1.0,1.0,1.0
28.1,9.0,1.0,1.0,1.0
28.15,12.0,1.0,1.0,1.0
28.2,15.992,1.0,1.0,1.0
28.25,11.0,1.0,1.0,1.0
28.3,4.008,1.0,1.0,1.0
28.35,20.496,1.0,1.0,1.0
28.4,34.0,1.0,1.0,1.0
28.45,12.0,1.0,1.0,1.0
28.5,23.0,1.0,1.0,1.0
28.55,8.0,1.0,1.0,1.0
28.6,14.504,1.0,1.0,1.0
28.65,9.0,1.0,1.0,1.0
28.7,8.496,1.0,1.0,1.0
28.75,14.0,1.0,1.0,1.0
28.8,20.496,1.0,1.0,1.0
28.85,5.0,1.0,1.0,1.0
28.9,13.496,1.0,1.0,1.0
28.95,19.992,1.0,1.0,1.0
29.0,11.0,1.0,1.0,1.0