File: XRD:XRR/SCO/22167_SL(CO)L/22167_SL(CO)L_XRD_001_2-Theta_Omega.asc
*TYPE		=  Raw
*CLASS		=  ASCII CLASS
*SAMPLE		=
*COMMENT	=
*FNAME		=  22167_SL(CO)L_XRD_001_2-Theta_Omega.asc
*DATE		=  08-Dec-22 17:02

*GROUP_COUNT	=  1
*GONIO		=  SmartLab(In-plane), 0.000000
*ATTACHMENT	=  Z-Phi Stage
*ASC		=  0, 0, 0.000000, 0.000000
*I_MONOCHRO	=  Ge(220)x2, 0.000000
*FILTER		=  None
*C_MONOCHRO	=  None, 0.000000
*SLIT_NAME	=  0, Incident slit
*SLIT_NAME	=  1, Receiving slit # 1
*SLIT_NAME	=  2, Receiving slit # 2
*COUNTER	=  D/teX Ultra 250, 0
*POS_FORMAT	=  0
*SCAN_AXIS	=  2Theta/Omega
*MEAS_MODE	=  Continuous Scanning
*TARGET		=  29
*XRAY_CHAR	=  K-ALPHA1
*WAVE_LENGTH1	=  1.54059
*WAVE_LENGTH2	=  1.54441
*THICKNESS	=  0, 0.000000
*MU		=  0, 0.000000
*SCAN_MODE	=  2Theta/Omega
*SPEED_DIM	=  sec./step
*XUNIT		=  deg.
*YUNIT		=  counts
*SCALE_MODE	=  1
*REP_COUNT	=  0
*SE_COUNT	=  0
*STD_MATERIAL	=  Unknown, Unknown, 0.000000, 0.000000, 0.000000, 0.000000, 0.000000, 0.000000
*LATT_CONS	=  0, Unknown, Unknown, 0.000000, 0.000000, 0.000000, 0.000000, 0.000000, 0.000000
*SEC_COUNT	=  1
*TSPEC_SIZE	=  0
*EXTRA_SIZE	=  0
*MEMO		=

*BEGIN
*GROUP		=  0
*START		=  17
*STOP		=  29
*STEP		=  0.01
*OFFSET		=  -0.111800
*SPEED		=  22.1803
*SLIT_SPEC	=  0, 0.400mm, 0.4, 0.000000
*SLIT_SPEC	=  1, 0.400mm, 0.4, 0.000000
*SLIT_SPEC	=  2, 0.400mm, 0.4, 0.000000
*KV		=  40
*MA		=  30
*LOW		=  0.000000
*HIGH		=  0.000000
*CTEMPER	=  0, 0.000000
*CTEMPER	=  1, 0.000000
*CTEMPER	=  2, 0.000000
*PAREX		=  0, 0.000000
*PAREX		=  1, 0.000000
*PAREX		=  2, 0.000000
*PAREX		=  3, 0.000000
*PAREX		=  4, 0.000000
*PAREX		=  5, 0.000000
*PAREX		=  6, 0.000000
*PAREX		=  7, 0.000000
*PAREX		=  8, 0.000000
*PAREX		=  9, 0.000000
*PAREX		=  10, 0.000000
*PAREX		=  11, 0.000000
*PAREX		=  12, 0.000000
*PAREX		=  13, 0.000000
*PAREX		=  14, 0.000000
*PAREX		=  15, 0.000000
*FULL_SCALE	=  1022371.8
*INDEX		=  0, 0, 0
*COUNT		=  1201
39, 28, 29.496, 19
35, 32, 28.504, 29.496
30, 29.008, 43.496, 26
33, 39.504, 23.992, 44.504
40.496, 18, 39, 26
23, 38, 26, 35
43.504, 40, 47.504, 48
41.496, 46, 36, 29
33, 23.504, 48.496, 49.504
39.5119, 46.992, 31, 36.496
33.992, 44.504, 43.496, 40.5119
37.496, 58, 42, 30
48.9841, 30, 39.504, 44.496
47.496, 46, 40, 48.504
31, 43.496, 33, 39.008
32.496, 47.504, 32.496, 34.5119
46, 41, 34, 16.504
31, 32, 45.504, 39.496
42, 40.0159, 40.9841, 39
37.5119, 63.992, 28.496, 26
39.496, 41, 44, 32
31.504, 32, 30.496, 43
34.008, 34.992, 45, 57
41, 22.504, 41, 23.496
35.496, 37, 25.5119, 42.992
45.504, 36.496, 31.504, 49.992
24, 15.992, 45.5119, 37.992
38, 27.504, 41.496, 52
37, 49, 32.992, 35.504
27, 31.992, 27, 39
38.504, 36.504, 42.496, 41
48, 53, 42.504, 54
47, 54.496, 37.496, 37.008
60.504, 51.496, 59.008, 59.504
48.496, 67.496, 56.504, 64.5119
73, 92.992, 101.504, 93.992
102.512, 104.992, 112.504, 120.992
75, 89, 69.504, 75.496
45, 62.992, 63.496, 52.008
40.992, 44.008, 41.992, 38.504
48.496, 39.5119, 43.4881, 46.504
44.504, 50.496, 38, 37
40, 24.504, 37.496, 37
32.496, 35.008, 35.496, 34
59, 39, 51.504, 37.496
40.008, 32.992, 37.504, 36.504
55.992, 60, 58.496, 61
65, 47.496, 57.008, 43.008
64.504, 47.496, 54, 42.008
25.504, 33.496, 53, 39.504
46.992, 60.496, 55.496, 61
49.496, 23, 54.008, 52.992
54.504, 57.496, 50, 57.504
58, 60.008, 76.504, 77.496
69.008, 73, 82.496, 101.008
177.504, 173, 194.504, 191.016
230.48, 247.008, 242.008, 305.504
490.992, 489, 535.008, 594.52
749.496, 715.016, 835.504, 833.992
1214.02, 1265.56, 1463.45, 1621.53
2196.02, 2334.01, 2486, 2475.98
2245.51, 2085.98, 1854.99, 1742.53
958.992, 783.472, 770.552, 713.968
522.008, 561.512, 562.984, 595.016
340.984, 299, 294.008, 275.488
179.512, 184, 169.488, 194.52
183.496, 187.992, 183.512, 209.488
204.016, 249.512, 291.992, 295.504
526.024, 580.992, 570.504, 613.488
908.992, 997.496, 1064.5, 1214.02
2050.54, 2237.44, 2403.57, 2699.52
3545.02, 3884.96, 4121.07, 4327.05
7037.04, 7515.94, 8181.16, 8744.99
10654.6, 10516.9, 10538.7, 10170.9
6789.5, 6084.81, 5156.01, 4675.47
2881.55, 2908.41, 2945.05, 3037.5
3714.02, 3685.49, 3658.99, 3546.94
3245.49, 3168.54, 3391.5, 3430.99
4886.95, 5239.08, 5829.59, 6298.1
9797.66, 11078.6, 12905.7, 15418.2
56957.4, 81798, 131123, 238355
11329776, 2245075.8, 569214, 296097
30834.9, 21431.5, 15916.6, 11604.7
4050.41, 3544.46, 3016.93, 2554.52
1523.97, 1294.01, 1258.5, 1193.01
985.464, 987.544, 1017.97, 993.552
998.464, 1020.5, 1037.53, 1062.99
783.992, 711.48, 670.016, 599.992
433.984, 414.504, 405.496, 423.512
316.496, 255.992, 297.504, 276.496
195.488, 209.016, 233.992, 219
158, 178.52, 176.472, 150.008
155.008, 141.992, 161, 145
135.504, 161, 133.504, 134.504
133.008, 122.504, 157.496, 148.504
105, 126.496, 138.512, 136.488
133.512, 136.512, 140.48, 100.008
120, 95.008, 75.9841, 74
40.504, 38.504, 40.992, 45
42.504, 25.496, 33, 43
38, 45, 53.008, 35.496
34.008, 51.992, 36, 45.008
48.992, 44, 41, 23.504
39, 29.992, 38, 44.504
33, 15, 33, 41
39, 42, 27.496, 29
40, 22, 32, 26.504
30.496, 29, 22, 20.504
23.496, 21, 16, 12
18.504, 13.992, 21.008, 14.992
23.504, 21.496, 29, 35.504
35, 20, 18, 45.008
43.496, 24.008, 44.496, 29
26.504, 17.504, 45.992, 36.504
17, 24, 28, 9.50398
25.992, 11, 25, 29.008
33.504, 17.496, 20.008, 17.992
25, 14, 30.504, 26
17.504, 16, 14.496, 33.504
40.504, 19.992, 8, 32.504
22, 19.008, 33.992, 25
17.504, 24, 16, 25.496
30, 21.504, 23.496, 17
25.992, 13.496, 21, 23
25, 20, 9, 17
24, 13, 12, 22.504
15.504, 17.496, 12, 15
16.504, 17.504, 27.496, 11.496
22.496, 21.008, 21.992, 19
13.496, 13, 12, 20
20.496, 9, 11, 7
10, 13, 9.50398, 16
6.49602, 20, 10, 21
9, 15, 25.504, 17.496
20, 26.504, 16.496, 17
7, 13, 15, 15
7, 15, 19.008, 10.992
12.504, 9.49602, 16, 9.00797
57.992, 26, 25, 10
13.496, 15, 8, 12
15.992, 20, 14, 13
4, 12, 4.00797, 13.992
21, 7.50398, 14.496, 13
10, 12, 18, 17.504
14.496, 17.008, 4.99203, 8
14.504, 17.496, 15, 14.008
12, 9.50398, 8.49602, 10
16, 19, 17.5119, 14.992
12, 5, 7, 7
12, 13.504, 10.504, 19.992
11
*END

*EOF