File: XRD:XRR/SCO/22167_SL(CO)L/22167_SL(CO)L_002_XRD.csv
#twotheta, yobs, ycal, bkg, diff
40.0,51.0111,1.0,1.0,1.0
40.05,51.0,1.0,1.0,1.0
40.1,56.9889,1.0,1.0,1.0
40.15,42.4944,1.0,1.0,1.0
40.2,58.5056,1.0,1.0,1.0
40.25,51.0,1.0,1.0,1.0
40.3,50.0,1.0,1.0,1.0
40.35,61.9889,1.0,1.0,1.0
40.4,61.4944,1.0,1.0,1.0
40.45,65.5056,1.0,1.0,1.0
40.5,65.5056,1.0,1.0,1.0
40.55,49.9778,1.0,1.0,1.0
40.6,69.0,1.0,1.0,1.0
40.65,71.0,1.0,1.0,1.0
40.7,64.5056,1.0,1.0,1.0
40.75,66.5056,1.0,1.0,1.0
40.8,44.9889,1.0,1.0,1.0
40.85,39.0,1.0,1.0,1.0
40.9,44.4944,1.0,1.0,1.0
40.95,57.0,1.0,1.0,1.0
41.0,60.0111,1.0,1.0,1.0
41.05,36.5056,1.0,1.0,1.0
41.1,67.5056,1.0,1.0,1.0
41.15,51.4944,1.0,1.0,1.0
41.2,65.0,1.0,1.0,1.0
41.25,56.4833,1.0,1.0,1.0
41.3,70.5056,1.0,1.0,1.0
41.35,57.0111,1.0,1.0,1.0
41.4,58.0,1.0,1.0,1.0
41.45,57.4944,1.0,1.0,1.0
41.5,65.5167,1.0,1.0,1.0
41.55,55.0111,1.0,1.0,1.0
41.6,65.0111,1.0,1.0,1.0
41.65,60.5056,1.0,1.0,1.0
41.7,55.9889,1.0,1.0,1.0
41.75,67.4944,1.0,1.0,1.0
41.8,77.0111,1.0,1.0,1.0
41.85,39.0,1.0,1.0,1.0
41.9,63.4944,1.0,1.0,1.0
41.95,48.0,1.0,1.0,1.0
42.0,68.0,1.0,1.0,1.0
42.05,49.9889,1.0,1.0,1.0
42.1,52.4944,1.0,1.0,1.0
42.15,71.4944,1.0,1.0,1.0
42.2,68.9889,1.0,1.0,1.0
42.25,55.4944,1.0,1.0,1.0
42.3,73.4944,1.0,1.0,1.0
42.35,72.0,1.0,1.0,1.0
42.4,60.5056,1.0,1.0,1.0
42.45,59.4944,1.0,1.0,1.0
42.5,67.5056,1.0,1.0,1.0
42.55,56.4833,1.0,1.0,1.0
42.6,52.4944,1.0,1.0,1.0
42.65,67.0,1.0,1.0,1.0
42.7,56.4944,1.0,1.0,1.0
42.75,60.0111,1.0,1.0,1.0
42.8,74.5167,1.0,1.0,1.0
42.85,66.4833,1.0,1.0,1.0
42.9,57.4944,1.0,1.0,1.0
42.95,93.0,1.0,1.0,1.0
43.0,101.0,1.0,1.0,1.0
43.05,118.0,1.0,1.0,1.0
43.1,93.9889,1.0,1.0,1.0
43.15,123.0,1.0,1.0,1.0
43.2,133.0,1.0,1.0,1.0
43.25,133.5056,1.0,1.0,1.0
43.3,99.4833,1.0,1.0,1.0
43.35,91.0111,1.0,1.0,1.0
43.4,94.0222,1.0,1.0,1.0
43.45,89.0,1.0,1.0,1.0
43.5,88.0111,1.0,1.0,1.0
43.55,102.0,1.0,1.0,1.0
43.6,102.0,1.0,1.0,1.0
43.65,86.0,1.0,1.0,1.0
43.7,77.4833,1.0,1.0,1.0
43.75,72.5056,1.0,1.0,1.0
43.8,86.0,1.0,1.0,1.0
43.85,68.0111,1.0,1.0,1.0
43.9,72.4833,1.0,1.0,1.0
43.95,77.4944,1.0,1.0,1.0
44.0,82.5056,1.0,1.0,1.0
44.05,73.5056,1.0,1.0,1.0
44.1,111.5056,1.0,1.0,1.0
44.15,113.4833,1.0,1.0,1.0
44.2,161.5056,1.0,1.0,1.0
44.25,193.5056,1.0,1.0,1.0
44.3,250.9778,1.0,1.0,1.0
44.35,245.5056,1.0,1.0,1.0
44.4,259.0111,1.0,1.0,1.0
44.45,235.9778,1.0,1.0,1.0
44.5,200.0222,1.0,1.0,1.0
44.55,182.0111,1.0,1.0,1.0
44.6,222.5167,1.0,1.0,1.0
44.65,281.5167,1.0,1.0,1.0
44.7,294.4833,1.0,1.0,1.0
44.75,334.0,1.0,1.0,1.0
44.8,308.0111,1.0,1.0,1.0
44.85,340.5056,1.0,1.0,1.0
44.9,478.0667,1.0,1.0,1.0
44.95,616.0111,1.0,1.0,1.0
45.0,846.9556,1.0,1.0,1.0
45.05,1157.01,1.0,1.0,1.0
45.1,1701.9,1.0,1.0,1.0
45.15,2269.99,1.0,1.0,1.0
45.2,2848.48,1.0,1.0,1.0
45.25,3735.97,1.0,1.0,1.0
45.3,4304.55,1.0,1.0,1.0
45.35,4854.39,1.0,1.0,1.0
45.4,4987.16,1.0,1.0,1.0
45.45,4852.46,1.0,1.0,1.0
45.5,4260.54,1.0,1.0,1.0
45.55,3647.07,1.0,1.0,1.0
45.6,3225.55,1.0,1.0,1.0
45.65,3122.07,1.0,1.0,1.0
45.7,3381.02,1.0,1.0,1.0
45.75,3369.01,1.0,1.0,1.0
45.8,3078.09,1.0,1.0,1.0
45.85,2557.93,1.0,1.0,1.0
45.9,2420.62,1.0,1.0,1.0
45.95,2464.96,1.0,1.0,1.0
46.0,2925.55,1.0,1.0,1.0
46.05,3523.08,1.0,1.0,1.0
46.1,5071.04,1.0,1.0,1.0
46.15,7050.41,1.0,1.0,1.0
46.2,9376.41,1.0,1.0,1.0
46.25,12548.3,1.0,1.0,1.0
46.3,16026.9,1.0,1.0,1.0
46.35,18882.3,1.0,1.0,1.0
46.4,21768.2,1.0,1.0,1.0
46.45,23062.2,1.0,1.0,1.0
46.5,22685.5,1.0,1.0,1.0
46.55,20558.7,1.0,1.0,1.0
46.6,17859.6,1.0,1.0,1.0
46.65,15001,1.0,1.0,1.0
46.7,13033.8,1.0,1.0,1.0
46.75,12341.9,1.0,1.0,1.0
46.8,11886,1.0,1.0,1.0
46.85,11141,1.0,1.0,1.0
46.9,9678.43,1.0,1.0,1.0
46.95,7549.561,1.0,1.0,1.0
47.0,5495.94,1.0,1.0,1.0
47.05,4324.52,1.0,1.0,1.0
47.1,3399.9,1.0,1.0,1.0
47.15,2470.98,1.0,1.0,1.0
47.2,2064.06,1.0,1.0,1.0
47.25,1618.48,1.0,1.0,1.0
47.3,1249.52,1.0,1.0,1.0
47.35,949.9889,1.0,1.0,1.0
47.4,811.0222,1.0,1.0,1.0
47.45,891.0222,1.0,1.0,1.0
47.5,1345.43,1.0,1.0,1.0
47.55,2339.02,1.0,1.0,1.0
47.6,3682.91,1.0,1.0,1.0
47.65,5134.1,1.0,1.0,1.0
47.7,6650.46,1.0,1.0,1.0
47.75,8506.8,1.0,1.0,1.0
47.8,13800.7,1.0,1.0,1.0
47.85,35178.8,1.0,1.0,1.0
47.9,112970,1.0,1.0,1.0
47.95,1361261.625,1.0,1.0,1.0
48.0,1792856.0,1.0,1.0,1.0
48.05,172137,1.0,1.0,1.0
48.1,41111.5,1.0,1.0,1.0
48.15,13010.583,1.0,1.0,1.0
48.2,5139.67,1.0,1.0,1.0
48.25,2835.45,1.0,1.0,1.0
48.3,1688.55,1.0,1.0,1.0
48.35,1224.51,1.0,1.0,1.0
48.4,973.0111,1.0,1.0,1.0
48.45,750.5278,1.0,1.0,1.0
48.5,693.4833,1.0,1.0,1.0
48.55,669.4722,1.0,1.0,1.0
48.6,622.5167,1.0,1.0,1.0
48.65,603.0555,1.0,1.0,1.0
48.7,492.0333,1.0,1.0,1.0
48.75,487.4833,1.0,1.0,1.0
48.8,384.0222,1.0,1.0,1.0
48.85,366.0111,1.0,1.0,1.0
48.9,382.5167,1.0,1.0,1.0
48.95,318.0,1.0,1.0,1.0
49.0,284.0222,1.0,1.0,1.0
49.05,262.5056,1.0,1.0,1.0
49.1,247.0333,1.0,1.0,1.0
49.15,205.5278,1.0,1.0,1.0
49.2,159.5056,1.0,1.0,1.0
49.25,140.0111,1.0,1.0,1.0
49.3,127.0111,1.0,1.0,1.0
49.35,117.5056,1.0,1.0,1.0
49.4,105.0,1.0,1.0,1.0
49.45,85.0111,1.0,1.0,1.0
49.5,68.5056,1.0,1.0,1.0
49.55,93.0,1.0,1.0,1.0
49.6,75.0111,1.0,1.0,1.0
49.65,76.5167,1.0,1.0,1.0
49.7,70.4944,1.0,1.0,1.0
49.75,81.5056,1.0,1.0,1.0
49.8,72.4944,1.0,1.0,1.0
49.85,74.5056,1.0,1.0,1.0
49.9,80.4944,1.0,1.0,1.0
49.95,77.5056,1.0,1.0,1.0
50.0,92.0,1.0,1.0,1.0
50.05,70.0,1.0,1.0,1.0
50.1,66.0,1.0,1.0,1.0
50.15,54.9889,1.0,1.0,1.0
50.2,57.4944,1.0,1.0,1.0
50.25,59.0,1.0,1.0,1.0
50.3,46.0,1.0,1.0,1.0
50.35,68.0,1.0,1.0,1.0
50.4,74.5056,1.0,1.0,1.0
50.45,64.0,1.0,1.0,1.0
50.5,60.9889,1.0,1.0,1.0
50.55,59.0,1.0,1.0,1.0
50.6,81.0,1.0,1.0,1.0
50.65,35.9889,1.0,1.0,1.0
50.7,43.5056,1.0,1.0,1.0
50.75,47.4944,1.0,1.0,1.0
50.8,59.0,1.0,1.0,1.0
50.85,40.0,1.0,1.0,1.0
50.9,45.0,1.0,1.0,1.0
50.95,51.5056,1.0,1.0,1.0
51.0,61.0,1.0,1.0,1.0
51.05,30.0,1.0,1.0,1.0
51.1,56.9889,1.0,1.0,1.0
51.15,44.9889,1.0,1.0,1.0
51.2,72.4944,1.0,1.0,1.0
51.25,43.5056,1.0,1.0,1.0
51.3,55.5167,1.0,1.0,1.0
51.35,55.4944,1.0,1.0,1.0
51.4,57.9889,1.0,1.0,1.0
51.45,49.0,1.0,1.0,1.0
51.5,41.4944,1.0,1.0,1.0
51.55,56.0111,1.0,1.0,1.0
51.6,53.4944,1.0,1.0,1.0
51.65,25.5056,1.0,1.0,1.0
51.7,47.4944,1.0,1.0,1.0
51.75,38.0,1.0,1.0,1.0
51.8,54.9889,1.0,1.0,1.0
51.85,46.0111,1.0,1.0,1.0
51.9,46.9889,1.0,1.0,1.0
51.95,44.4944,1.0,1.0,1.0
52.0,35.4833,1.0,1.0,1.0
52.05,43.0,1.0,1.0,1.0
52.1,44.5056,1.0,1.0,1.0
52.15,43.0111,1.0,1.0,1.0
52.2,20.0,1.0,1.0,1.0
52.25,30.0,1.0,1.0,1.0
52.3,35.0,1.0,1.0,1.0
52.35,29.0,1.0,1.0,1.0
52.4,45.9889,1.0,1.0,1.0
52.45,34.0,1.0,1.0,1.0
52.5,34.4944,1.0,1.0,1.0
52.55,45.0,1.0,1.0,1.0
52.6,35.5167,1.0,1.0,1.0
52.65,34.0,1.0,1.0,1.0
52.7,43.4944,1.0,1.0,1.0
52.75,41.0,1.0,1.0,1.0
52.8,45.0,1.0,1.0,1.0
52.85,50.0,1.0,1.0,1.0
52.9,41.9889,1.0,1.0,1.0
52.95,40.5056,1.0,1.0,1.0
53.0,39.5056,1.0,1.0,1.0
53.05,46.5056,1.0,1.0,1.0
53.1,38.0,1.0,1.0,1.0
53.15,50.0111,1.0,1.0,1.0
53.2,53.5056,1.0,1.0,1.0
53.25,52.0111,1.0,1.0,1.0
53.3,37.0,1.0,1.0,1.0
53.35,36.4944,1.0,1.0,1.0
53.4,56.5056,1.0,1.0,1.0
53.45,40.0111,1.0,1.0,1.0
53.5,39.4944,1.0,1.0,1.0
53.55,30.0,1.0,1.0,1.0
53.6,45.0,1.0,1.0,1.0
53.65,38.0,1.0,1.0,1.0
53.7,48.5056,1.0,1.0,1.0
53.75,28.5056,1.0,1.0,1.0
53.8,24.0111,1.0,1.0,1.0
53.85,44.0,1.0,1.0,1.0
53.9,48.0,1.0,1.0,1.0
53.95,45.0,1.0,1.0,1.0
54.0,41.0,1.0,1.0,1.0