File: XRD:XRR/STO/22098_STOL/22098_STOL_XRD_2-Theta_Omega.asc
*TYPE		=  Raw
*CLASS		=  ASCII CLASS
*SAMPLE		=
*COMMENT	=
*FNAME		=  22098_STOL_XRD_2-Theta_Omega.asc
*DATE		=  22-Jun-22 08:12

*GROUP_COUNT	=  1
*GONIO		=  SmartLab(In-plane), 0.000000
*ATTACHMENT	=  Z-Phi Stage
*ASC		=  0, 0, 0.000000, 0.000000
*I_MONOCHRO	=  Ge(220)x2, 0.000000
*FILTER		=  None
*C_MONOCHRO	=  None, 0.000000
*SLIT_NAME	=  0, Incident slit
*SLIT_NAME	=  1, Receiving slit # 1
*SLIT_NAME	=  2, Receiving slit # 2
*COUNTER	=  D/teX Ultra 250, 0
*POS_FORMAT	=  0
*SCAN_AXIS	=  2Theta/Omega
*MEAS_MODE	=  Continuous Scanning
*TARGET		=  29
*XRAY_CHAR	=  K-ALPHA1
*WAVE_LENGTH1	=  1.54059
*WAVE_LENGTH2	=  1.54441
*THICKNESS	=  0, 0.000000
*MU		=  0, 0.000000
*SCAN_MODE	=  2Theta/Omega
*SPEED_DIM	=  sec./step
*XUNIT		=  deg.
*YUNIT		=  counts
*SCALE_MODE	=  1
*REP_COUNT	=  0
*SE_COUNT	=  0
*STD_MATERIAL	=  Unknown, Unknown, 0.000000, 0.000000, 0.000000, 0.000000, 0.000000, 0.000000
*LATT_CONS	=  0, Unknown, Unknown, 0.000000, 0.000000, 0.000000, 0.000000, 0.000000, 0.000000
*SEC_COUNT	=  1
*TSPEC_SIZE	=  0
*EXTRA_SIZE	=  0
*MEMO		=

*BEGIN
*GROUP		=  0
*START		=  39
*STOP		=  57
*STEP		=  0.01
*OFFSET		=  0.1723
*SPEED		=  29.9581
*SLIT_SPEC	=  0, 0.400mm, 0.4, 0.000000
*SLIT_SPEC	=  1, 0.400mm, 0.4, 0.000000
*SLIT_SPEC	=  2, 0.400mm, 0.4, 0.000000
*KV		=  40
*MA		=  30
*LOW		=  0.000000
*HIGH		=  0.000000
*CTEMPER	=  0, 0.000000
*CTEMPER	=  1, 0.000000
*CTEMPER	=  2, 0.000000
*PAREX		=  0, 0.000000
*PAREX		=  1, 0.000000
*PAREX		=  2, 0.000000
*PAREX		=  3, 0.000000
*PAREX		=  4, 0.000000
*PAREX		=  5, 0.000000
*PAREX		=  6, 0.000000
*PAREX		=  7, 0.000000
*PAREX		=  8, 0.000000
*PAREX		=  9, 0.000000
*PAREX		=  10, 0.000000
*PAREX		=  11, 0.000000
*PAREX		=  12, 0.000000
*PAREX		=  13, 0.000000
*PAREX		=  14, 0.000000
*PAREX		=  15, 0.000000
*FULL_SCALE	=  1428173.5
*INDEX		=  0, 0, 0
*COUNT		=  1801
6, 0.000000, 0.000000, 10
2, 12, 4, 2
6, 2, 0.000000, 38
6, 7, 2, 0.000000
4, 2, 4, 2
3.49445, 5.50555, 0.000000, 0.000000
2, 5, 0.000000, 8
0.000000, 5.49445, 4.50555, 7
6, 4, 8, 3
6, 2, 2, 4
5, 0.000000, 0.000000, 6
0.000000, 2, 0.494446, 10
0.000000, 1, 0.000000, 3
7, 2, 6, 3.49445
5, 2, 0.000000, 4
8.50555, 0.000000, 3, 2
12, 2, 0.000000, 0.000000
0.000000, 2, 2, 5
10, 11, 3, 2
4, 2, 12.4944, 3.50555
5, 5, 13, 4
4.50555, 3.49445, 23.4944, 11.0111
8, 2, 11, 4
5, 5, 4, 0.000000
2, 7.49445, 9.50555, 4
7.50555, 7, 4, 11
8, 12, 5, 14
1, 6, 8.49445, 5.50555
6, 6, 11, 2
7.49445, 8, 8.50555, 8
10, 2, 10, 17.4944
10, 6.49445, 3.50555, 6
5, 10, 13.9889, 13.5056
5.50555, 6, 6, 7
16, 23, 9, 3
9, 6, 14, 6
4, 15, 5, 7.49445
13.0111, 7, 7, 8.49445
7, 7, 6, 5
1, 6, 3, 7
5, 1, 3, 6
6, 6, 9, 12
0.000000, 8, 6, 2
3, 4, 0.000000, 5
3, 2, 6, 4
2, 3, 10, 7
3, 6, 4, 2
13, 13, 5.49445, 11.5056
2, 14.4944, 14.5056, 13.9889
12.4944, 14.0111, 16, 13
23, 13, 15, 20
23.5056, 19.9889, 15.0111, 32
17.4944, 25.5056, 18, 28.9889
32.0111, 32.4833, 31.5056, 30
40.4944, 31.5056, 41, 38.4944
25, 48.4944, 57.5056, 62.4944
59.4944, 62.9889, 75.0111, 73.4944
94.5056, 95.4944, 65.5056, 96.0111
94.0111, 78.4833, 72.0111, 92.4833
107.494, 111.494, 106, 120
116.989, 101.506, 137, 99.4833
144.483, 145.022, 123.494, 146
180.022, 156.989, 139.483, 151.022
192.506, 200.483, 195.517, 227.989
196.494, 203.483, 211, 209.506
227.517, 230, 211.989, 254.506
211.956, 253.517, 253.483, 246.506
264.956, 266.022, 277.506, 267.517
245.978, 254.033, 290, 277.989
310.461, 317.033, 352.494, 323
331, 352, 345.494, 314
405.528, 349.978, 339.483, 382.506
316.483, 373.033, 414.944, 396.528
413.056, 435.978, 378.989, 416.506
399.528, 402.506, 403.428, 434.056
475.989, 433.022, 458.022, 499.483
456.506, 441.956, 511.494, 461.528
491.483, 473, 465.978, 512.517
483.483, 506.494, 516.011, 513
485.956, 518.528, 455.506, 490.472
499.978, 539.506, 516.022, 493.978
540.011, 577.989, 503.506, 550.483
579.517, 536.506, 579.978, 510.517
587.461, 542, 542, 559.528
539.911, 587.583, 533.517, 566.944
558.989, 536, 517.022, 558.506
558.967, 559.55, 617.944, 568.539
606.517, 519.494, 605.517, 545.506
569.506, 536.033, 539.033, 553.944
540.483, 513.506, 536.483, 543.044
524.483, 500.978, 541.022, 549.022
514.967, 508.022, 485.539, 539.461
552.517, 581.967, 538.989, 539.022
474.506, 514.989, 525.506, 577.45
523, 544, 521.472, 510.011
539.483, 461.528, 549.978, 545.506
529.022, 534.483, 507, 525.483
527.989, 497.978, 484.517, 487.989
485.517, 472.989, 538.506, 493.494
508.483, 546.472, 557.056, 511.472
536.517, 559.461, 520.033, 512.483
577.056, 569.461, 616, 600.033
598.967, 681.011, 635.45, 639.044
709.967, 664.528, 662.506, 701
784.989, 748, 784.461, 826.528
860.483, 943.978, 956.033, 999.472
1092.48, 1150.96, 1243.57, 1113.96
1528.51, 1572.01, 1487.93, 1566.03
1998.43, 2309.03, 2319.98, 2404.94
3401.33, 3644.07, 4065.96, 4402.45
7435.53, 8368.33, 9728.9, 11162.8
43829.4, 144760, 129295, 106804
2925341.5, 19156810, 33471802, 17025460
107809, 72753.6, 50911.6, 37239.7
11515.9, 9288.23, 8099.54, 6905.06
3600.08, 3209.61, 2902.99, 2719.99
1717.53, 1569.48, 1400.55, 1367.53
981.472, 879.572, 833.472, 767.011
651.461, 590.517, 486.022, 553.011
416.494, 380, 369.506, 363.022
235.506, 256.011, 226.472, 264.528
200.978, 201.517, 196.011, 187.506
157.989, 149.011, 181.989, 174.517
148.506, 121.989, 122.989, 122.022
103.506, 85, 76.5056, 69.4944
71.4944, 64.9889, 76.5056, 60
58.0111, 66.5056, 43.4944, 34.5056
41.5056, 49, 47, 39.4944
40, 46, 33, 47
35.0111, 27, 26, 28
18, 47, 23.4944, 28.5056
27.4944, 14.5056, 34, 16.4944
12.5167, 19, 28, 28
13, 27, 16, 22
19, 19.4944, 18.5056, 24.4944
16, 11.9889, 12.5056, 25.5056
7.50555, 16, 8, 18.4944
20.4944, 11.5056, 26, 10.4944
12.5056, 18, 23, 9
15.5056, 13, 26, 22
15.0111, 10, 7, 22
6, 9, 19, 11
7, 16, 11, 2
24, 13, 9, 15
12, 10.4944, 19.5056, 14
12, 10, 3, 12
5, 11, 4, 7
7, 13, 6, 7
10.4944, 2.50555, 5, 10
0.000000, 5, 7, 17
15.5056, 10, 3, 13.9889
13, 3, 43, 9.49445
6.49445, 2.50555, 12, 0.000000
6, 6, 8, 4
2, 7, 8, 12
6, 9, 8, 0.000000
5, 0.494446, 6.50555, 6
13, 11, 5, 2
10, 2, 9, 4
4, 9, 7, 8
4, 2, 0.000000, 0.000000
3, 0.000000, 1, 7
2, 8, 4, 5
9, 2, 0.000000, 3
0.000000, 0.494446, 3.50555, 0.000000
4, 4, 5, 5.49445
10, 5.49445, 1.50555, 0.000000
3, 10, 6, 4
3.50555, 0.000000, 0.000000, 2
7, 0.000000, 0.000000, 2
0.000000, 8, 2, 4
2, 2, 11, 2
4, 6, 2, 6
7, 8, 6, 0.000000
5, 2, 8, 4
7, 3, 2, 0.000000
8.50555, 0.000000, 4, 0.000000
7.49445, 0.505554, 0.000000, 2
4, 4, 9, 4
0.000000, 3, 4, 5
4, 7.49445, 6.50555, 4
1, 0.000000, 4, 1
5, 11, 6, 3
5, 4, 4, 4
2, 5.98889, 1.01111, 9
4, 11, 2, 0.000000
4, 2, 3, 2
6, 3, 2, 7
10, 15, 3.49445, 4.50555
4, 5, 2, 1
2, 2, 4, 0.000000
2, 9, 4, 0.000000
0.000000, 3, 6, 3
0.000000, 8, 3, 8
6, 3, 4, 2
3, 2, 2, 2
3, 7, 11, 2
0.000000, 6, 0.000000, 5
4, 2, 3, 7
4, 3, 2, 0.000000
2, 2, 3, 0.000000
0.000000, 4, 0.000000, 2
6, 5, 0.000000, 2
2, 2, 0.000000, 2
0.000000, 2, 10, 0.000000
4, 4, 0.000000, 5
2.50555, 3, 5, 7.49445
0.000000, 0.000000, 0.000000, 5
0.000000, 0.000000, 5, 0.000000
6, 0.000000, 0.000000, 2
2, 6, 8, 4
1.50555, 10, 5, 2
2, 4.49445, 9.50555, 7
0.000000, 8.49445, 5.50555, 4
4, 2, 0.494446, 5.50555
3, 2, 7, 0.000000
10, 0.000000, 4, 5
0.494446, 2.50555, 2, 5
2, 0.000000, 0.000000, 0.000000
0.494446, 5, 3.50555, 0.000000
2, 59, 0.000000, 7.49445
0.000000, 2, 14, 1.49445
4, 6, 2, 0.000000
4, 2, 2, 6
0.000000, 0.000000, 2, 3
6
*END

*EOF