File: XRD:XRR/STO/22098_STOL/22098_STOL_XRD.csv
#twotheta, yobs, ycal, bkg, diff
39.0,6.0,1.0,1.0,1.0
39.07,3.0,1.0,1.0,1.0
39.14,2.0,1.0,1.0,1.0
39.21,3.0,1.0,1.0,1.0
39.28,7.0,1.0,1.0,1.0
39.35,2.0,1.0,1.0,1.0
39.42,0.0,1.0,1.0,1.0
39.49,5.0,1.0,1.0,1.0
39.56,0.0,1.0,1.0,1.0
39.63,0.0,1.0,1.0,1.0
39.7,7.0,1.0,1.0,1.0
39.77,3.0,1.0,1.0,1.0
39.84,3.0,1.0,1.0,1.0
39.91,10.0,1.0,1.0,1.0
39.98,0.0,1.0,1.0,1.0
40.05,2.0,1.0,1.0,1.0
40.12,5.0,1.0,1.0,1.0
40.19,1.4944,1.0,1.0,1.0
40.26,4.0,1.0,1.0,1.0
40.33,6.0,1.0,1.0,1.0
40.4,7.0,1.0,1.0,1.0
40.47,2.0,1.0,1.0,1.0
40.54,12.4944,1.0,1.0,1.0
40.61,5.0,1.0,1.0,1.0
40.68,4.5056,1.0,1.0,1.0
40.75,7.0,1.0,1.0,1.0
40.82,3.0,1.0,1.0,1.0
40.89,8.0,1.0,1.0,1.0
40.96,7.0,1.0,1.0,1.0
41.03,11.0,1.0,1.0,1.0
41.1,5.0,1.0,1.0,1.0
41.17,6.0,1.0,1.0,1.0
41.24,6.0,1.0,1.0,1.0
41.31,5.5056,1.0,1.0,1.0
41.38,15.0,1.0,1.0,1.0
41.45,4.4944,1.0,1.0,1.0
41.52,5.0,1.0,1.0,1.0
41.59,13.5056,1.0,1.0,1.0
41.66,6.0,1.0,1.0,1.0
41.73,23.0,1.0,1.0,1.0
41.8,9.0,1.0,1.0,1.0
41.87,4.0111,1.0,1.0,1.0
41.94,6.0,1.0,1.0,1.0
42.01,2.0,1.0,1.0,1.0
42.08,6.0,1.0,1.0,1.0
42.15,7.0,1.0,1.0,1.0
42.22,3.0,1.0,1.0,1.0
42.29,6.0,1.0,1.0,1.0
42.36,0.0,1.0,1.0,1.0
42.43,0.0,1.0,1.0,1.0
42.5,0.0,1.0,1.0,1.0
42.57,14.0,1.0,1.0,1.0
42.64,4.0,1.0,1.0,1.0
42.71,2.0,1.0,1.0,1.0
42.78,5.4944,1.0,1.0,1.0
42.85,14.4944,1.0,1.0,1.0
42.92,12.4944,1.0,1.0,1.0
42.99,25.0,1.0,1.0,1.0
43.06,23.5056,1.0,1.0,1.0
43.13,24.4944,1.0,1.0,1.0
43.2,36.0111,1.0,1.0,1.0
43.27,30.0,1.0,1.0,1.0
43.34,41.0,1.0,1.0,1.0
43.41,48.4944,1.0,1.0,1.0
43.48,59.4944,1.0,1.0,1.0
43.55,78.4833,1.0,1.0,1.0
43.62,76.4833,1.0,1.0,1.0
43.69,124.0,1.0,1.0,1.0
43.76,121.9889,1.0,1.0,1.0
43.83,99.4833,1.0,1.0,1.0
43.9,123.4944,1.0,1.0,1.0
43.97,156.9889,1.0,1.0,1.0
44.04,192.5056,1.0,1.0,1.0
44.11,203.0333,1.0,1.0,1.0
44.18,242.0222,1.0,1.0,1.0
44.25,228.5278,1.0,1.0,1.0
44.32,263.5056,1.0,1.0,1.0
44.39,267.5167,1.0,1.0,1.0
44.46,290.0,1.0,1.0,1.0
44.53,317.0333,1.0,1.0,1.0
44.6,331.0,1.0,1.0,1.0
44.67,341.4944,1.0,1.0,1.0
44.74,387.0111,1.0,1.0,1.0
44.81,367.9889,1.0,1.0,1.0
44.88,434.0111,1.0,1.0,1.0
44.95,434.0555,1.0,1.0,1.0
45.02,458.0222,1.0,1.0,1.0
45.09,441.9556,1.0,1.0,1.0
45.16,491.4833,1.0,1.0,1.0
45.23,510.0111,1.0,1.0,1.0
45.3,466.9667,1.0,1.0,1.0
45.37,573.9333,1.0,1.0,1.0
45.44,533.5278,1.0,1.0,1.0
45.51,550.4833,1.0,1.0,1.0
45.58,579.9778,1.0,1.0,1.0
45.65,542.0,1.0,1.0,1.0
45.72,539.9111,1.0,1.0,1.0
45.79,568.5056,1.0,1.0,1.0
45.86,469.4611,1.0,1.0,1.0
45.93,553.5278,1.0,1.0,1.0
46.0,524.0111,1.0,1.0,1.0
46.07,553.9445,1.0,1.0,1.0
46.14,536.4833,1.0,1.0,1.0
46.21,500.9778,1.0,1.0,1.0
46.28,514.9667,1.0,1.0,1.0
46.35,538.5056,1.0,1.0,1.0
46.42,503.4833,1.0,1.0,1.0
46.49,523.5056,1.0,1.0,1.0
46.56,503.0,1.0,1.0,1.0
46.63,545.5056,1.0,1.0,1.0
46.7,507.0,1.0,1.0,1.0
46.77,497.9778,1.0,1.0,1.0
46.84,485.5167,1.0,1.0,1.0
46.91,549.5278,1.0,1.0,1.0
46.98,502.4944,1.0,1.0,1.0
47.05,537.0111,1.0,1.0,1.0
47.12,581.9667,1.0,1.0,1.0
47.19,639.0444,1.0,1.0,1.0
47.26,662.5056,1.0,1.0,1.0
47.33,748.0,1.0,1.0,1.0
47.4,860.4833,1.0,1.0,1.0
47.47,1085.01,1.0,1.0,1.0
47.54,1419.03,1.0,1.0,1.0
47.61,1743.0,1.0,1.0,1.0
47.68,2514.53,1.0,1.0,1.0
47.75,4402.45,1.0,1.0,1.0
47.82,9728.9,1.0,1.0,1.0
47.89,144760,1.0,1.0,1.0
47.96,2925341.5,1.0,1.0,1.0
48.03,158775,1.0,1.0,1.0
48.1,17061.377,1.0,1.0,1.0
48.17,5118.53,1.0,1.0,1.0
48.24,2476.57,1.0,1.0,1.0
48.31,1367.53,1.0,1.0,1.0
48.38,833.4722,1.0,1.0,1.0
48.45,590.5167,1.0,1.0,1.0
48.52,416.4944,1.0,1.0,1.0
48.59,334.5056,1.0,1.0,1.0
48.66,199.4944,1.0,1.0,1.0
48.73,187.9778,1.0,1.0,1.0
48.8,126.4833,1.0,1.0,1.0
48.87,122.0222,1.0,1.0,1.0
48.94,76.5056,1.0,1.0,1.0
49.01,64.9889,1.0,1.0,1.0
49.08,58.0111,1.0,1.0,1.0
49.15,41.0,1.0,1.0,1.0
49.22,58.4833,1.0,1.0,1.0
49.29,46.4944,1.0,1.0,1.0
49.36,32.4944,1.0,1.0,1.0
49.43,28.5056,1.0,1.0,1.0
49.5,34.0,1.0,1.0,1.0
49.57,19.0,1.0,1.0,1.0
49.64,13.0,1.0,1.0,1.0
49.71,19.5056,1.0,1.0,1.0
49.78,16.5056,1.0,1.0,1.0
49.85,22.9889,1.0,1.0,1.0
49.92,16.0,1.0,1.0,1.0
49.99,10.4944,1.0,1.0,1.0
50.06,23.0,1.0,1.0,1.0
50.13,13.0,1.0,1.0,1.0
50.2,15.0111,1.0,1.0,1.0
50.27,5.5056,1.0,1.0,1.0
50.34,6.0,1.0,1.0,1.0
50.41,13.5056,1.0,1.0,1.0
50.48,12.0,1.0,1.0,1.0
50.55,14.0,1.0,1.0,1.0
50.62,3.0,1.0,1.0,1.0
50.69,11.0,1.0,1.0,1.0
50.76,7.0,1.0,1.0,1.0
50.83,7.0,1.0,1.0,1.0
50.9,6.0,1.0,1.0,1.0
50.97,2.0,1.0,1.0,1.0
51.04,12.0111,1.0,1.0,1.0
51.11,9.4944,1.0,1.0,1.0
51.18,12.0,1.0,1.0,1.0
51.25,6.0,1.0,1.0,1.0
51.32,2.0,1.0,1.0,1.0
51.39,12.0,1.0,1.0,1.0
51.46,6.4944,1.0,1.0,1.0
51.53,4.0,1.0,1.0,1.0
51.6,3.0,1.0,1.0,1.0
51.67,4.0,1.0,1.0,1.0
51.74,7.0,1.0,1.0,1.0
51.81,2.0,1.0,1.0,1.0
51.88,3.0,1.0,1.0,1.0
51.95,4.0,1.0,1.0,1.0
52.02,3.0,1.0,1.0,1.0
52.09,4.0,1.0,1.0,1.0
52.16,5.0,1.0,1.0,1.0
52.23,5.4944,1.0,1.0,1.0
52.3,1.5056,1.0,1.0,1.0
52.37,10.0,1.0,1.0,1.0
52.44,3.5056,1.0,1.0,1.0
52.51,9.0222,1.0,1.0,1.0
52.58,6.4944,1.0,1.0,1.0
52.65,6.0,1.0,1.0,1.0
52.72,0.0,1.0,1.0,1.0
52.79,6.0,1.0,1.0,1.0
52.86,6.0,1.0,1.0,1.0
52.93,2.0,1.0,1.0,1.0
53.0,7.0,1.0,1.0,1.0
53.07,10.4944,1.0,1.0,1.0
53.14,10.0,1.0,1.0,1.0
53.21,2.0,1.0,1.0,1.0
53.28,0.9889,1.0,1.0,1.0
53.35,5.0,1.0,1.0,1.0
53.42,6.5056,1.0,1.0,1.0
53.49,0.0,1.0,1.0,1.0
53.56,5.0,1.0,1.0,1.0
53.63,2.0,1.0,1.0,1.0
53.7,6.5056,1.0,1.0,1.0
53.77,5.0,1.0,1.0,1.0
53.84,0.0,1.0,1.0,1.0
53.91,2.0,1.0,1.0,1.0
53.98,2.0,1.0,1.0,1.0
54.05,15.0,1.0,1.0,1.0
54.12,4.0,1.0,1.0,1.0
54.19,10.0,1.0,1.0,1.0
54.26,4.0,1.0,1.0,1.0
54.33,6.0,1.0,1.0,1.0
54.4,6.0,1.0,1.0,1.0
54.47,8.0,1.0,1.0,1.0
54.54,4.0,1.0,1.0,1.0
54.61,2.0,1.0,1.0,1.0
54.68,3.0,1.0,1.0,1.0
54.75,0.0,1.0,1.0,1.0
54.82,0.0,1.0,1.0,1.0
54.89,3.0,1.0,1.0,1.0
54.96,0.0,1.0,1.0,1.0
55.03,0.0,1.0,1.0,1.0
55.1,0.0,1.0,1.0,1.0
55.17,5.0,1.0,1.0,1.0
55.24,2.0,1.0,1.0,1.0
55.31,7.0,1.0,1.0,1.0
55.38,6.0,1.0,1.0,1.0
55.45,6.0,1.0,1.0,1.0
55.52,0.5056,1.0,1.0,1.0
55.59,5.0,1.0,1.0,1.0
55.66,5.0,1.0,1.0,1.0
55.73,0.0,1.0,1.0,1.0
55.8,2.0,1.0,1.0,1.0
55.87,4.0,1.0,1.0,1.0
55.94,9.0,1.0,1.0,1.0
56.01,2.0,1.0,1.0,1.0
56.08,3.0,1.0,1.0,1.0
56.15,5.5056,1.0,1.0,1.0
56.22,7.0,1.0,1.0,1.0
56.29,0.0,1.0,1.0,1.0
56.36,0.4944,1.0,1.0,1.0
56.43,4.0,1.0,1.0,1.0
56.5,4.0,1.0,1.0,1.0
56.57,0.0,1.0,1.0,1.0
56.64,0.5056,1.0,1.0,1.0
56.71,1.4944,1.0,1.0,1.0
56.78,2.0,1.0,1.0,1.0
56.85,2.0,1.0,1.0,1.0
56.92,0.0,1.0,1.0,1.0
56.99,3.0,1.0,1.0,1.0
57.0,6.0,1.0,1.0,1.0