File: XRD:XRR/STO/22098_STOL/22098_STOL_XRR_2-Theta_Omega.asc
*TYPE		=  Raw
*CLASS		=  ASCII CLASS
*SAMPLE		=
*COMMENT	=
*FNAME		=  22098_STOL_XRR_2-Theta_Omega.asc
*DATE		=  21-Jun-22 16:18

*GROUP_COUNT	=  1
*GONIO		=  SmartLab(In-plane), 0.000000
*ATTACHMENT	=  Z-Phi Stage
*ASC		=  0, 0, 0.000000, 0.000000
*I_MONOCHRO	=  Ge(220)x2, 0.000000
*FILTER		=  None
*C_MONOCHRO	=  None, 0.000000
*SLIT_NAME	=  0, Incident slit
*SLIT_NAME	=  1, Receiving slit # 1
*SLIT_NAME	=  2, Receiving slit # 2
*COUNTER	=  D/teX Ultra 250, 0
*POS_FORMAT	=  0
*SCAN_AXIS	=  2Theta/Omega
*MEAS_MODE	=  Continuous Scanning
*TARGET		=  29
*XRAY_CHAR	=  K-ALPHA1
*WAVE_LENGTH1	=  1.54059
*WAVE_LENGTH2	=  1.54441
*THICKNESS	=  0, 0.000000
*MU		=  0, 0.000000
*SCAN_MODE	=  2Theta/Omega
*SPEED_DIM	=  sec./step
*XUNIT		=  deg.
*YUNIT		=  counts
*SCALE_MODE	=  1
*REP_COUNT	=  0
*SE_COUNT	=  0
*STD_MATERIAL	=  Unknown, Unknown, 0.000000, 0.000000, 0.000000, 0.000000, 0.000000, 0.000000
*LATT_CONS	=  0, Unknown, Unknown, 0.000000, 0.000000, 0.000000, 0.000000, 0.000000, 0.000000
*SEC_COUNT	=  1
*TSPEC_SIZE	=  0
*EXTRA_SIZE	=  0
*MEMO		=

*BEGIN
*GROUP		=  0
*START		=  0.4
*STOP		=  4.5
*STEP		=  0.01
*OFFSET		=  -0.008200
*SPEED		=  5.95853
*SLIT_SPEC	=  0, 1.000mm, 1, 0.000000
*SLIT_SPEC	=  1, 1.000mm, 1, 0.000000
*SLIT_SPEC	=  2, 1.000mm, 1, 0.000000
*KV		=  40
*MA		=  30
*LOW		=  0.000000
*HIGH		=  0.000000
*CTEMPER	=  0, 0.000000
*CTEMPER	=  1, 0.000000
*CTEMPER	=  2, 0.000000
*PAREX		=  0, 0.000000
*PAREX		=  1, 0.000000
*PAREX		=  2, 0.000000
*PAREX		=  3, 0.000000
*PAREX		=  4, 0.000000
*PAREX		=  5, 0.000000
*PAREX		=  6, 0.000000
*PAREX		=  7, 0.000000
*PAREX		=  8, 0.000000
*PAREX		=  9, 0.000000
*PAREX		=  10, 0.000000
*PAREX		=  11, 0.000000
*PAREX		=  12, 0.000000
*PAREX		=  13, 0.000000
*PAREX		=  14, 0.000000
*PAREX		=  15, 0.000000
*FULL_SCALE	=  156240
*INDEX		=  0, 0, 0
*COUNT		=  411
593320, 604835, 616782, 628314
639235, 648361, 660515, 669434
682079, 693084, 702769, 711353
720326, 729379, 735908, 746093
751859, 756329, 758870, 762642
760808, 758090, 752345, 747853
732819, 714362, 693532, 664485
627818, 587163, 535950, 484607
428299, 376303, 328348, 285533
247488, 216680, 189544, 166922
147381, 131973, 117321, 105007
94499, 86179.5, 77815.5, 70807
64536, 59349, 54305.5, 50020.5
46017.5, 42160.5, 39630.5, 36270.5
33850.5, 31069.5, 29060, 27257
25212, 23597, 21813, 20342.5
19312, 18007.5, 16895, 15579
14552.5, 13810, 13161.5, 12468
11610, 11000, 10340.5, 9840.5
9329.5, 8678, 8196.5, 7885
7643, 7067.5, 6749, 6427
6202, 5847, 5488, 5463
5223, 4976.5, 4682.5, 4621.5
4433.5, 4194, 4093, 3919.5
3905, 3703, 3679, 3486.5
3421.5, 3209.5, 3235.5, 3045.5
3205.5, 3034.5, 3000, 2859
2939.5, 2765, 2655.5, 2679.5
2646.5, 2614, 2516.5, 2489
2435.5, 2460, 2477.5, 2398.5
2373.5, 2392, 2332.5, 2341
2293.5, 2319, 2281.5, 2162
2214, 2186.5, 2220.5, 2140.5
2118, 2080.5, 2061, 2081
2031, 2074.5, 2110.5, 2008
2008.5, 2025.5, 2030, 2021
1992.5, 1985, 1946.5, 1908
1880.5, 1898.5, 1850, 1796.5
1818, 1900.5, 1893, 1798.5
1815, 1845.5, 1715, 1686.5
1759, 1716, 1718.5, 1741.5
1757.5, 1652, 1666, 1580
1623, 1621.5, 1604, 1577.5
1517.5, 1552.5, 1506.5, 1639
1552.5, 1480.5, 1432, 1429.5
1402.5, 1398.5, 1360.5, 1419
1377, 1295, 1297.5, 1382.5
1324.5, 1285.5, 1244.5, 1204.5
1223.5, 1202.5, 1187, 1195.5
1132, 1101, 1100.5, 1089.5
1111, 1086.5, 1053.5, 1034.5
1003, 999.999, 991.501, 921
936, 910.5, 933, 857.5
851, 877, 804, 752
816, 811.5, 770, 745.5
731, 680.5, 714.999, 701
693, 677.5, 635.5, 607.5
648, 602.5, 595, 590.5
578, 556.5, 533.5, 589.5
555, 466.001, 542.5, 514
458, 485.5, 521.5, 472
474.5, 380, 419.5, 369
413, 373, 364.5, 368.5
331, 347.5, 367.5, 357
329, 308.5, 301, 301.5
281, 272.5, 259.5, 249
244, 285, 229.5, 258.5
222, 231.5, 250, 228.5
208, 204.5, 198, 188
166, 147.5, 189.5, 181
168.5, 163.5, 175, 164
158, 166.5, 151.5, 149
134, 150, 163.5, 115.5
130, 129.5, 131, 117
107, 100, 111, 111
112, 108, 120, 113.5
79, 99.4999, 104, 96.5001
91, 74.9999, 83.5002, 82.4997
94.5002, 92.0001, 86.9999, 70.0001
101, 92, 82.4997, 67.5003
80.4999, 79, 91.5001, 68.4999
81, 62.5001, 47, 69.9999
75.4999, 80.5002, 55.4999, 87.4999
71, 75, 67.0001, 77.9999
80, 87.5001, 87.4999, 86.5001
65.5001, 80.9999, 76, 76.5001
83.4999, 60.0001, 81.4999, 64.5001
63, 87.4999, 93, 81.4998
77.5002, 72, 62.5001, 76.4999
62.9999, 85, 73.5002, 64.4999
92, 84.4999, 71.5001, 89.9999
93.5001, 97, 86.4999, 87.5002
84.4998, 104.5, 75.4999, 81.0001
79.9999, 65.5001, 92.5001, 76.5001
76.9998, 101.5, 80.5002, 73.4999
65.9998, 84.0001, 84.9999, 92.5003
91.4999, 90, 92, 90.4999
95.0001, 76.4998, 79.5001, 91
85.5001, 76.5001, 78, 80.9999
91.4999, 79.5001, 56.4999, 100.5
79.4999, 91.5001, 96, 96
85.0001, 112, 93.4999, 80.0001
95.4999, 96.9999, 60.5002
*END

*EOF