File: XRD:XRR/STO/22147_STOL/22147_STOL_XRD.csv
#twotheta, yobs, ycal, bkg, diff
42.0,13.0,1.0,1.0,1.0
42.05,20.5056,1.0,1.0,1.0
42.1,10.0,1.0,1.0,1.0
42.15,13.0,1.0,1.0,1.0
42.2,22.0,1.0,1.0,1.0
42.25,13.4833,1.0,1.0,1.0
42.3,16.0111,1.0,1.0,1.0
42.35,17.5056,1.0,1.0,1.0
42.4,10.0,1.0,1.0,1.0
42.45,12.5056,1.0,1.0,1.0
42.5,24.0,1.0,1.0,1.0
42.55,27.0,1.0,1.0,1.0
42.6,22.0,1.0,1.0,1.0
42.65,18.0,1.0,1.0,1.0
42.7,18.0111,1.0,1.0,1.0
42.75,29.0,1.0,1.0,1.0
42.8,27.0,1.0,1.0,1.0
42.85,23.4944,1.0,1.0,1.0
42.9,30.5167,1.0,1.0,1.0
42.95,26.9889,1.0,1.0,1.0
43.0,21.4944,1.0,1.0,1.0
43.05,20.0111,1.0,1.0,1.0
43.1,19.0,1.0,1.0,1.0
43.15,15.0,1.0,1.0,1.0
43.2,20.0,1.0,1.0,1.0
43.25,13.9889,1.0,1.0,1.0
43.3,11.4944,1.0,1.0,1.0
43.35,25.4944,1.0,1.0,1.0
43.4,21.0,1.0,1.0,1.0
43.45,19.4944,1.0,1.0,1.0
43.5,24.9889,1.0,1.0,1.0
43.55,22.5056,1.0,1.0,1.0
43.6,24.0,1.0,1.0,1.0
43.65,36.0,1.0,1.0,1.0
43.7,50.5056,1.0,1.0,1.0
43.75,23.0,1.0,1.0,1.0
43.8,47.5056,1.0,1.0,1.0
43.85,35.4944,1.0,1.0,1.0
43.9,57.9889,1.0,1.0,1.0
43.95,35.4944,1.0,1.0,1.0
44.0,43.5056,1.0,1.0,1.0
44.05,29.9889,1.0,1.0,1.0
44.1,50.4833,1.0,1.0,1.0
44.15,38.9778,1.0,1.0,1.0
44.2,32.4944,1.0,1.0,1.0
44.25,24.4944,1.0,1.0,1.0
44.3,32.4944,1.0,1.0,1.0
44.35,71.0111,1.0,1.0,1.0
44.4,78.0,1.0,1.0,1.0
44.45,92.4944,1.0,1.0,1.0
44.5,154.4833,1.0,1.0,1.0
44.55,174.5056,1.0,1.0,1.0
44.6,239.5056,1.0,1.0,1.0
44.65,263.4722,1.0,1.0,1.0
44.7,314.0222,1.0,1.0,1.0
44.75,403.4722,1.0,1.0,1.0
44.8,430.4833,1.0,1.0,1.0
44.85,514.4944,1.0,1.0,1.0
44.9,583.0111,1.0,1.0,1.0
44.95,659.4944,1.0,1.0,1.0
45.0,705.4944,1.0,1.0,1.0
45.05,735.4944,1.0,1.0,1.0
45.1,819.5167,1.0,1.0,1.0
45.15,836.0222,1.0,1.0,1.0
45.2,817.4611,1.0,1.0,1.0
45.25,821.0222,1.0,1.0,1.0
45.3,890.0222,1.0,1.0,1.0
45.35,909.4833,1.0,1.0,1.0
45.4,834.5278,1.0,1.0,1.0
45.45,838.9445,1.0,1.0,1.0
45.5,830.4611,1.0,1.0,1.0
45.55,801.5056,1.0,1.0,1.0
45.6,770.5167,1.0,1.0,1.0
45.65,721.55,1.0,1.0,1.0
45.7,679.4944,1.0,1.0,1.0
45.75,696.9556,1.0,1.0,1.0
45.8,566.55,1.0,1.0,1.0
45.85,590.5389,1.0,1.0,1.0
45.9,528.9889,1.0,1.0,1.0
45.95,535.0444,1.0,1.0,1.0
46.0,502.5278,1.0,1.0,1.0
46.05,470.4944,1.0,1.0,1.0
46.1,525.0,1.0,1.0,1.0
46.15,426.5167,1.0,1.0,1.0
46.2,434.9667,1.0,1.0,1.0
46.25,416.0333,1.0,1.0,1.0
46.3,366.5056,1.0,1.0,1.0
46.35,319.5056,1.0,1.0,1.0
46.4,326.5389,1.0,1.0,1.0
46.45,307.5056,1.0,1.0,1.0
46.5,238.5056,1.0,1.0,1.0
46.55,262.5056,1.0,1.0,1.0
46.6,218.0111,1.0,1.0,1.0
46.65,184.0,1.0,1.0,1.0
46.7,172.4944,1.0,1.0,1.0
46.75,169.0,1.0,1.0,1.0
46.8,131.5056,1.0,1.0,1.0
46.85,101.0111,1.0,1.0,1.0
46.9,128.0,1.0,1.0,1.0
46.95,101.5056,1.0,1.0,1.0
47.0,111.0,1.0,1.0,1.0
47.05,111.5056,1.0,1.0,1.0
47.1,129.5167,1.0,1.0,1.0
47.15,130.4944,1.0,1.0,1.0
47.2,140.5056,1.0,1.0,1.0
47.25,181.4833,1.0,1.0,1.0
47.3,217.0333,1.0,1.0,1.0
47.35,261.0444,1.0,1.0,1.0
47.4,279.9889,1.0,1.0,1.0
47.45,353.5389,1.0,1.0,1.0
47.5,372.5278,1.0,1.0,1.0
47.55,491.9778,1.0,1.0,1.0
47.6,601.0222,1.0,1.0,1.0
47.65,865.5056,1.0,1.0,1.0
47.7,1345.54,1.0,1.0,1.0
47.75,2806.08,1.0,1.0,1.0
47.8,7264.73,1.0,1.0,1.0
47.85,39917.4,1.0,1.0,1.0
47.9,3359877.75,1.0,1.0,1.0
47.95,5214339.0,1.0,1.0,1.0
48.0,336180.125,1.0,1.0,1.0
48.05,41635.4,1.0,1.0,1.0
48.1,10451,1.0,1.0,1.0
48.15,3828.57,1.0,1.0,1.0
48.2,1758.52,1.0,1.0,1.0
48.25,933.0778,1.0,1.0,1.0
48.3,581.5278,1.0,1.0,1.0
48.35,390.4833,1.0,1.0,1.0
48.4,302.9778,1.0,1.0,1.0
48.45,222.0444,1.0,1.0,1.0
48.5,152.0,1.0,1.0,1.0
48.55,130.4833,1.0,1.0,1.0
48.6,108.0,1.0,1.0,1.0
48.65,90.5056,1.0,1.0,1.0
48.7,80.0,1.0,1.0,1.0
48.75,85.5056,1.0,1.0,1.0
48.8,63.5056,1.0,1.0,1.0
48.85,77.4944,1.0,1.0,1.0
48.9,51.4944,1.0,1.0,1.0
48.95,47.5056,1.0,1.0,1.0
49.0,34.5056,1.0,1.0,1.0
49.05,38.0,1.0,1.0,1.0
49.1,37.4944,1.0,1.0,1.0
49.15,45.0,1.0,1.0,1.0
49.2,25.4944,1.0,1.0,1.0
49.25,29.4944,1.0,1.0,1.0
49.3,22.5056,1.0,1.0,1.0
49.35,19.0,1.0,1.0,1.0
49.4,19.0,1.0,1.0,1.0
49.45,27.0,1.0,1.0,1.0
49.5,28.0,1.0,1.0,1.0
49.55,17.0,1.0,1.0,1.0
49.6,20.0,1.0,1.0,1.0
49.65,8.5056,1.0,1.0,1.0
49.7,18.0,1.0,1.0,1.0
49.75,9.4944,1.0,1.0,1.0
49.8,14.0,1.0,1.0,1.0
49.85,20.4944,1.0,1.0,1.0
49.9,22.0,1.0,1.0,1.0
49.95,22.0,1.0,1.0,1.0
50.0,21.5056,1.0,1.0,1.0
50.05,11.0,1.0,1.0,1.0
50.1,11.0,1.0,1.0,1.0
50.15,23.0,1.0,1.0,1.0
50.2,14.0,1.0,1.0,1.0
50.25,10.0,1.0,1.0,1.0
50.3,15.0,1.0,1.0,1.0
50.35,15.0,1.0,1.0,1.0
50.4,23.0,1.0,1.0,1.0
50.45,32.0111,1.0,1.0,1.0
50.5,14.5056,1.0,1.0,1.0
50.55,11.0,1.0,1.0,1.0
50.6,11.0111,1.0,1.0,1.0
50.65,8.4944,1.0,1.0,1.0
50.7,12.0,1.0,1.0,1.0
50.75,12.0,1.0,1.0,1.0
50.8,15.0,1.0,1.0,1.0
50.85,15.0,1.0,1.0,1.0
50.9,10.0,1.0,1.0,1.0
50.95,21.4944,1.0,1.0,1.0
51.0,19.0,1.0,1.0,1.0
51.05,16.0,1.0,1.0,1.0
51.1,16.0,1.0,1.0,1.0
51.15,11.0111,1.0,1.0,1.0
51.2,10.5056,1.0,1.0,1.0
51.25,15.0,1.0,1.0,1.0
51.3,18.5056,1.0,1.0,1.0
51.35,10.4944,1.0,1.0,1.0
51.4,19.4944,1.0,1.0,1.0
51.45,16.0,1.0,1.0,1.0
51.5,11.0,1.0,1.0,1.0
51.55,9.0,1.0,1.0,1.0
51.6,11.0,1.0,1.0,1.0
51.65,19.4944,1.0,1.0,1.0
51.7,11.0,1.0,1.0,1.0
51.75,7.0,1.0,1.0,1.0
51.8,18.0,1.0,1.0,1.0
51.85,13.0,1.0,1.0,1.0
51.9,8.0,1.0,1.0,1.0
51.95,15.0,1.0,1.0,1.0
52.0,15.0,1.0,1.0,1.0
0.44,2307353.5,1.0,1.0,1.0
0.49,2328564.0,1.0,1.0,1.0
0.54,2027597.125,1.0,1.0,1.0
0.59,1148295.75,1.0,1.0,1.0
0.64,429409,1.0,1.0,1.0
0.69,177785,1.0,1.0,1.0
0.74,119510.0,1.0,1.0,1.0
0.79,108903.0,1.0,1.0,1.0
0.84,107755.0,1.0,1.0,1.0
0.89,102712,1.0,1.0,1.0
0.94,91027,1.0,1.0,1.0
0.99,76334.0,1.0,1.0,1.0
1.04,59859,1.0,1.0,1.0
1.09,44533,1.0,1.0,1.0
1.14,32347.5,1.0,1.0,1.0
1.19,22423.5,1.0,1.0,1.0
1.24,15545.5,1.0,1.0,1.0
1.29,11146.5,1.0,1.0,1.0
1.34,9197.501,1.0,1.0,1.0
1.39,8457.5,1.0,1.0,1.0
1.44,8750.501,1.0,1.0,1.0
1.49,9248.001,1.0,1.0,1.0
1.54,9661.5,1.0,1.0,1.0
1.59,9887.0,1.0,1.0,1.0
1.64,9868.001,1.0,1.0,1.0
1.69,9373.5,1.0,1.0,1.0
1.74,8457,1.0,1.0,1.0
1.79,7264.999,1.0,1.0,1.0
1.84,6089.499,1.0,1.0,1.0
1.89,4813,1.0,1.0,1.0
1.94,3487,1.0,1.0,1.0
1.99,2699,1.0,1.0,1.0
2.04,2045,1.0,1.0,1.0
2.09,1687.5,1.0,1.0,1.0
2.14,1436,1.0,1.0,1.0
2.19,1498,1.0,1.0,1.0
2.24,1546.5,1.0,1.0,1.0
2.29,1677.5,1.0,1.0,1.0
2.34,1951.5,1.0,1.0,1.0
2.39,2040,1.0,1.0,1.0
2.44,1977.0,1.0,1.0,1.0
2.49,1990,1.0,1.0,1.0
2.54,1896,1.0,1.0,1.0
2.59,1827.5,1.0,1.0,1.0
2.64,1533.5,1.0,1.0,1.0
2.69,1299,1.0,1.0,1.0
2.74,1065,1.0,1.0,1.0
2.79,855.9996,1.0,1.0,1.0
2.84,722.5002,1.0,1.0,1.0
2.89,623.5002,1.0,1.0,1.0
2.94,550.9999,1.0,1.0,1.0
2.99,513.4998,1.0,1.0,1.0
3.04,520.0002,1.0,1.0,1.0
3.09,543.0003,1.0,1.0,1.0
3.14,595.0003,1.0,1.0,1.0
3.19,673.5005,1.0,1.0,1.0
3.24,677.5002,1.0,1.0,1.0
3.29,690.4993,1.0,1.0,1.0
3.34,720.4999,1.0,1.0,1.0
3.39,700.5004,1.0,1.0,1.0
3.44,719.9996,1.0,1.0,1.0
3.49,576.5005,1.0,1.0,1.0
3.54,564.4999,1.0,1.0,1.0
3.59,487.0002,1.0,1.0,1.0
3.64,440.0003,1.0,1.0,1.0
3.69,351.0,1.0,1.0,1.0
3.74,317.5001,1.0,1.0,1.0
3.79,328.9999,1.0,1.0,1.0
3.84,297.4998,1.0,1.0,1.0
3.89,310.9999,1.0,1.0,1.0
3.94,308.9998,1.0,1.0,1.0
3.99,309.0003,1.0,1.0,1.0
4.04,394.0001,1.0,1.0,1.0
4.09,350.4995,1.0,1.0,1.0
4.14,349.4997,1.0,1.0,1.0
4.19,416.4999,1.0,1.0,1.0
4.24,375.0,1.0,1.0,1.0
4.29,339.0,1.0,1.0,1.0
4.34,347.0001,1.0,1.0,1.0
4.39,345.4999,1.0,1.0,1.0
4.44,302.9999,1.0,1.0,1.0
4.49,283.0,1.0,1.0,1.0
4.5,282.4998,1.0,1.0,1.0