File: XRD:XRR/STO/22147_STOL/22147_STOL_XRD_2.csv
#twotheta, yobs, ycal, bkg, diff
42.0,10.4944,1.0,1.0,1.0
42.04,8.0,1.0,1.0,1.0
42.08,8.0,1.0,1.0,1.0
42.12,15.0111,1.0,1.0,1.0
42.16,14.0,1.0,1.0,1.0
42.2,10.0,1.0,1.0,1.0
42.24,8.0,1.0,1.0,1.0
42.28,13.0,1.0,1.0,1.0
42.32,10.0,1.0,1.0,1.0
42.36,6.0,1.0,1.0,1.0
42.4,22.4944,1.0,1.0,1.0
42.44,10.0,1.0,1.0,1.0
42.48,6.0,1.0,1.0,1.0
42.52,6.0,1.0,1.0,1.0
42.56,6.5056,1.0,1.0,1.0
42.6,9.0,1.0,1.0,1.0
42.64,5.0,1.0,1.0,1.0
42.68,16.0,1.0,1.0,1.0
42.72,8.5056,1.0,1.0,1.0
42.76,24.5056,1.0,1.0,1.0
42.8,23.0,1.0,1.0,1.0
42.84,17.0,1.0,1.0,1.0
42.88,7.0,1.0,1.0,1.0
42.92,15.0,1.0,1.0,1.0
42.96,14.0,1.0,1.0,1.0
43.0,12.0,1.0,1.0,1.0
43.04,18.0,1.0,1.0,1.0
43.08,18.0,1.0,1.0,1.0
43.12,20.4944,1.0,1.0,1.0
43.16,13.0,1.0,1.0,1.0
43.2,15.0,1.0,1.0,1.0
43.24,14.0,1.0,1.0,1.0
43.28,8.4944,1.0,1.0,1.0
43.32,9.5056,1.0,1.0,1.0
43.36,7.5056,1.0,1.0,1.0
43.4,2.0,1.0,1.0,1.0
43.44,7.5056,1.0,1.0,1.0
43.48,15.9889,1.0,1.0,1.0
43.52,16.0,1.0,1.0,1.0
43.56,28.5056,1.0,1.0,1.0
43.6,18.5056,1.0,1.0,1.0
43.64,24.0,1.0,1.0,1.0
43.68,18.4944,1.0,1.0,1.0
43.72,16.0,1.0,1.0,1.0
43.76,31.0,1.0,1.0,1.0
43.8,30.5167,1.0,1.0,1.0
43.84,35.5056,1.0,1.0,1.0
43.88,50.4944,1.0,1.0,1.0
43.92,39.0,1.0,1.0,1.0
43.96,38.0111,1.0,1.0,1.0
44.0,52.0,1.0,1.0,1.0
44.04,32.0,1.0,1.0,1.0
44.08,40.0,1.0,1.0,1.0
44.12,24.0,1.0,1.0,1.0
44.16,40.5056,1.0,1.0,1.0
44.2,41.5056,1.0,1.0,1.0
44.24,32.4944,1.0,1.0,1.0
44.28,39.5056,1.0,1.0,1.0
44.32,36.9889,1.0,1.0,1.0
44.36,44.0,1.0,1.0,1.0
44.4,79.5056,1.0,1.0,1.0
44.44,84.5167,1.0,1.0,1.0
44.48,116.5056,1.0,1.0,1.0
44.52,148.0,1.0,1.0,1.0
44.56,157.0,1.0,1.0,1.0
44.6,206.0111,1.0,1.0,1.0
44.64,208.0222,1.0,1.0,1.0
44.68,278.5056,1.0,1.0,1.0
44.72,326.4944,1.0,1.0,1.0
44.76,422.9889,1.0,1.0,1.0
44.8,448.0333,1.0,1.0,1.0
44.84,524.5278,1.0,1.0,1.0
44.88,631.5167,1.0,1.0,1.0
44.92,597.5167,1.0,1.0,1.0
44.96,716.5389,1.0,1.0,1.0
45.0,786.0222,1.0,1.0,1.0
45.04,821.4833,1.0,1.0,1.0
45.08,903.0111,1.0,1.0,1.0
45.12,1012.47,1.0,1.0,1.0
45.16,1039.92,1.0,1.0,1.0
45.2,1077.97,1.0,1.0,1.0
45.24,1062.54,1.0,1.0,1.0
45.28,1062.96,1.0,1.0,1.0
45.32,1061.98,1.0,1.0,1.0
45.36,1057.49,1.0,1.0,1.0
45.4,1086.54,1.0,1.0,1.0
45.44,1094.99,1.0,1.0,1.0
45.48,1046.04,1.0,1.0,1.0
45.52,1057.43,1.0,1.0,1.0
45.56,1023.98,1.0,1.0,1.0
45.6,986.4833,1.0,1.0,1.0
45.64,937.55,1.0,1.0,1.0
45.68,890.4944,1.0,1.0,1.0
45.72,857.0111,1.0,1.0,1.0
45.76,858.5056,1.0,1.0,1.0
45.8,773.4611,1.0,1.0,1.0
45.84,763.4944,1.0,1.0,1.0
45.88,715.9778,1.0,1.0,1.0
45.92,682.4722,1.0,1.0,1.0
45.96,622.0111,1.0,1.0,1.0
46.0,645.4944,1.0,1.0,1.0
46.04,626.4944,1.0,1.0,1.0
46.08,578.5167,1.0,1.0,1.0
46.12,592.0,1.0,1.0,1.0
46.16,534.5056,1.0,1.0,1.0
46.2,511.5167,1.0,1.0,1.0
46.24,456.4833,1.0,1.0,1.0
46.28,428.5056,1.0,1.0,1.0
46.32,455.0444,1.0,1.0,1.0
46.36,459.0222,1.0,1.0,1.0
46.4,410.0222,1.0,1.0,1.0
46.44,345.9889,1.0,1.0,1.0
46.48,356.0222,1.0,1.0,1.0
46.52,282.4833,1.0,1.0,1.0
46.56,301.4833,1.0,1.0,1.0
46.6,275.0111,1.0,1.0,1.0
46.64,259.9667,1.0,1.0,1.0
46.68,205.5167,1.0,1.0,1.0
46.72,186.9889,1.0,1.0,1.0
46.76,192.4944,1.0,1.0,1.0
46.8,152.0222,1.0,1.0,1.0
46.84,168.0,1.0,1.0,1.0
46.88,150.0,1.0,1.0,1.0
46.92,105.5056,1.0,1.0,1.0
46.96,103.4833,1.0,1.0,1.0
47.0,91.0111,1.0,1.0,1.0
47.04,126.9889,1.0,1.0,1.0
47.08,144.0,1.0,1.0,1.0
47.12,121.9778,1.0,1.0,1.0
47.16,138.0222,1.0,1.0,1.0
47.2,168.0111,1.0,1.0,1.0
47.24,218.5056,1.0,1.0,1.0
47.28,221.5167,1.0,1.0,1.0
47.32,247.4944,1.0,1.0,1.0
47.36,287.9667,1.0,1.0,1.0
47.4,311.0,1.0,1.0,1.0
47.44,307.4722,1.0,1.0,1.0
47.48,353.9889,1.0,1.0,1.0
47.52,425.9556,1.0,1.0,1.0
47.56,510.0222,1.0,1.0,1.0
47.6,595.0222,1.0,1.0,1.0
47.64,780.9778,1.0,1.0,1.0
47.68,1013.93,1.0,1.0,1.0
47.72,1548.39,1.0,1.0,1.0
47.76,2535.94,1.0,1.0,1.0
47.8,4771.84,1.0,1.0,1.0
47.84,11810.6,1.0,1.0,1.0
47.88,41369.5,1.0,1.0,1.0
47.92,489065,1.0,1.0,1.0
47.96,4593614.0,1.0,1.0,1.0
48.0,8011028.5,1.0,1.0,1.0
48.04,3050854.75,1.0,1.0,1.0
48.08,76678.5,1.0,1.0,1.0
48.12,17586.5,1.0,1.0,1.0
48.16,6880.74,1.0,1.0,1.0
48.2,3526.47,1.0,1.0,1.0
48.24,1827.02,1.0,1.0,1.0
48.28,1137.0,1.0,1.0,1.0
48.32,682.45,1.0,1.0,1.0
48.36,524.9556,1.0,1.0,1.0
48.4,387.4944,1.0,1.0,1.0
48.44,282.5056,1.0,1.0,1.0
48.48,243.5056,1.0,1.0,1.0
48.52,196.9889,1.0,1.0,1.0
48.56,155.0,1.0,1.0,1.0
48.6,146.5056,1.0,1.0,1.0
48.64,122.5056,1.0,1.0,1.0
48.68,74.4833,1.0,1.0,1.0
48.72,87.4833,1.0,1.0,1.0
48.76,68.5167,1.0,1.0,1.0
48.8,59.0,1.0,1.0,1.0
48.84,59.9889,1.0,1.0,1.0
48.88,67.5056,1.0,1.0,1.0
48.92,74.4944,1.0,1.0,1.0
48.96,44.0,1.0,1.0,1.0
49.0,45.9889,1.0,1.0,1.0
49.04,33.0,1.0,1.0,1.0
49.08,35.5056,1.0,1.0,1.0
49.12,45.0111,1.0,1.0,1.0
49.16,20.0,1.0,1.0,1.0
49.2,34.5167,1.0,1.0,1.0
49.24,21.5056,1.0,1.0,1.0
49.28,22.5056,1.0,1.0,1.0
49.32,39.4944,1.0,1.0,1.0
49.36,17.0,1.0,1.0,1.0
49.4,8.4944,1.0,1.0,1.0
49.44,25.0111,1.0,1.0,1.0
49.48,22.5056,1.0,1.0,1.0
49.52,29.9889,1.0,1.0,1.0
49.56,15.0,1.0,1.0,1.0
49.6,17.4944,1.0,1.0,1.0
49.64,9.5056,1.0,1.0,1.0
49.68,15.4944,1.0,1.0,1.0
49.72,23.0,1.0,1.0,1.0
49.76,17.0,1.0,1.0,1.0
49.8,16.0,1.0,1.0,1.0
49.84,12.0,1.0,1.0,1.0
49.88,21.0,1.0,1.0,1.0
49.92,14.0111,1.0,1.0,1.0
49.96,12.0111,1.0,1.0,1.0
50.0,11.5056,1.0,1.0,1.0
50.04,9.5056,1.0,1.0,1.0
50.08,12.0,1.0,1.0,1.0
50.12,6.0,1.0,1.0,1.0
50.16,9.0,1.0,1.0,1.0
50.2,12.0,1.0,1.0,1.0
50.24,17.0,1.0,1.0,1.0
50.28,15.0,1.0,1.0,1.0
50.32,11.0,1.0,1.0,1.0
50.36,14.4944,1.0,1.0,1.0
50.4,11.0,1.0,1.0,1.0
50.44,15.0,1.0,1.0,1.0
50.48,7.0,1.0,1.0,1.0
50.52,10.4944,1.0,1.0,1.0
50.56,9.4944,1.0,1.0,1.0
50.6,3.5056,1.0,1.0,1.0
50.64,15.0,1.0,1.0,1.0
50.68,5.0,1.0,1.0,1.0
50.72,9.0,1.0,1.0,1.0
50.76,9.4944,1.0,1.0,1.0
50.8,3.0,1.0,1.0,1.0
50.84,12.0,1.0,1.0,1.0
50.88,11.0111,1.0,1.0,1.0
50.92,8.0,1.0,1.0,1.0
50.96,8.0,1.0,1.0,1.0
51.0,9.0,1.0,1.0,1.0
51.04,10.0,1.0,1.0,1.0
51.08,2.0,1.0,1.0,1.0
51.12,8.0,1.0,1.0,1.0
51.16,21.0111,1.0,1.0,1.0
51.2,4.0,1.0,1.0,1.0
51.24,2.0,1.0,1.0,1.0
51.28,5.0,1.0,1.0,1.0
51.32,7.0,1.0,1.0,1.0
51.36,9.0,1.0,1.0,1.0
51.4,9.4944,1.0,1.0,1.0
51.44,0.0,1.0,1.0,1.0
51.48,0.5056,1.0,1.0,1.0
51.52,12.5056,1.0,1.0,1.0
51.56,1.5056,1.0,1.0,1.0
51.6,6.0,1.0,1.0,1.0
51.64,13.9889,1.0,1.0,1.0
51.68,13.5056,1.0,1.0,1.0
51.72,7.5056,1.0,1.0,1.0
51.76,5.0,1.0,1.0,1.0
51.8,10.0,1.0,1.0,1.0
51.84,15.0,1.0,1.0,1.0
51.88,2.0,1.0,1.0,1.0
51.92,3.0,1.0,1.0,1.0
51.96,4.0,1.0,1.0,1.0
52.0,7.0,1.0,1.0,1.0