File: XRD:XRR/STO/22147_STOL/22147_STOL_XRD_2-Theta_Omega.asc
*TYPE		=  Raw
*CLASS		=  ASCII CLASS
*SAMPLE		=
*COMMENT	=
*FNAME		=  22147_STOL_XRD_2-Theta_Omega.asc
*DATE		=  05-Oct-22 03:15

*GROUP_COUNT	=  1
*GONIO		=  SmartLab(In-plane), 0.000000
*ATTACHMENT	=  Z-Phi Stage
*ASC		=  0, 0, 0.000000, 0.000000
*I_MONOCHRO	=  Ge(220)x2, 0.000000
*FILTER		=  None
*C_MONOCHRO	=  None, 0.000000
*SLIT_NAME	=  0, Incident slit
*SLIT_NAME	=  1, Receiving slit # 1
*SLIT_NAME	=  2, Receiving slit # 2
*COUNTER	=  D/teX Ultra 250, 0
*POS_FORMAT	=  0
*SCAN_AXIS	=  2Theta/Omega
*MEAS_MODE	=  Continuous Scanning
*TARGET		=  29
*XRAY_CHAR	=  K-ALPHA1
*WAVE_LENGTH1	=  1.54059
*WAVE_LENGTH2	=  1.54441
*THICKNESS	=  0, 0.000000
*MU		=  0, 0.000000
*SCAN_MODE	=  2Theta/Omega
*SPEED_DIM	=  sec./step
*XUNIT		=  deg.
*YUNIT		=  counts
*SCALE_MODE	=  1
*REP_COUNT	=  0
*SE_COUNT	=  0
*STD_MATERIAL	=  Unknown, Unknown, 0.000000, 0.000000, 0.000000, 0.000000, 0.000000, 0.000000
*LATT_CONS	=  0, Unknown, Unknown, 0.000000, 0.000000, 0.000000, 0.000000, 0.000000, 0.000000
*SEC_COUNT	=  2
*TSPEC_SIZE	=  0
*EXTRA_SIZE	=  0
*MEMO		=

*BEGIN
*GROUP		=  0
*START		=  42
*STOP		=  52
*STEP		=  0.01
*OFFSET		=  0.0526
*SPEED		=  23.9588
*SLIT_SPEC	=  0, 0.400mm, 0.4, 0.000000
*SLIT_SPEC	=  1, 0.400mm, 0.4, 0.000000
*SLIT_SPEC	=  2, 0.400mm, 0.4, 0.000000
*KV		=  40
*MA		=  30
*LOW		=  0.000000
*HIGH		=  0.000000
*CTEMPER	=  0, 0.000000
*CTEMPER	=  1, 0.000000
*CTEMPER	=  2, 0.000000
*PAREX		=  0, 0.000000
*PAREX		=  1, 0.000000
*PAREX		=  2, 0.000000
*PAREX		=  3, 0.000000
*PAREX		=  4, 0.000000
*PAREX		=  5, 0.000000
*PAREX		=  6, 0.000000
*PAREX		=  7, 0.000000
*PAREX		=  8, 0.000000
*PAREX		=  9, 0.000000
*PAREX		=  10, 0.000000
*PAREX		=  11, 0.000000
*PAREX		=  12, 0.000000
*PAREX		=  13, 0.000000
*PAREX		=  14, 0.000000
*PAREX		=  15, 0.000000
*FULL_SCALE	=  501659
*INDEX		=  0, 0, 0
*COUNT		=  1001
13, 26.9889, 11.0111, 13
19.4944, 20.5056, 20, 15
21, 19, 10, 16.4944
24, 19.5056, 22.4944, 13
21.4944, 30.5056, 10.5056, 19
22, 17, 26.4944, 26
14.5056, 13.4833, 16.5167, 27
9, 30.9889, 16.0111, 13
9, 24, 32.4944, 17.5056
22, 23.4944, 19.5056, 10
10, 27, 26, 19.4944
22, 12.5056, 21, 18
24, 17, 24, 19
20, 7.49445, 10.5056, 27
8, 21, 22.4944, 11.5056
22, 15, 18.4944, 11.5056
19, 18, 25.4944, 16
20.4944, 27, 18.0111, 24
18.4944, 15.5056, 32, 29
10, 20, 13.4944, 28
27, 12.5056, 28, 18
20, 23.4944, 30.5056, 31.9889
21, 6.49445, 30.5167, 31
26, 22, 14, 26.9889
24.0111, 32.9889, 21.0111, 19
21.4944, 18, 25, 27
22.4944, 20.0111, 21.9889, 37.0111
13.9889, 23.0111, 19, 26.4944
28.5056, 11, 13.4944, 15
13.5056, 6, 20.4944, 13.5056
20, 8, 16, 22
19, 13.9889, 20.0111, 17
13, 32, 11.4944, 13
25, 15, 21, 25.4944
15.0111, 22.9889, 11.0111, 17
21, 13, 25.4944, 26.5056
28, 19.4944, 29, 22.5056
28, 18, 24.9889, 49.5056
32, 33.5056, 39.4944, 22.5056
41.4833, 26.0111, 23.5056, 37
24, 38, 33.4944, 27.4944
33.5056, 36, 30.5056, 31
28.4944, 54, 50.5056, 51.4944
52.9889, 42.5167, 32.4944, 23
39, 36.5056, 37.9889, 39
47.5056, 29.5056, 34.9889, 38.0111
40, 35.4944, 40.5056, 42.4944
42.5056, 63.4944, 57.9889, 41.5167
40, 50.4944, 40, 35.4944
31.5056, 33.5056, 35, 36.4944
43.5056, 37.4944, 33, 36
49.4944, 29.9889, 43.0222, 45
29.4944, 34.5056, 50.4833, 34.0111
39, 32.5056, 23, 38.9778
33.5167, 59.5056, 24.4944, 37.5056
32.4944, 42.5056, 41.9889, 50.5056
50.5056, 24.4944, 38, 46.5056
45, 54, 32.4944, 35
46, 62, 61.4944, 71.0111
75, 86, 49.4944, 69.5056
78, 75.9889, 84.5056, 106.494
99.0111, 92.4944, 109.989, 100.989
109.528, 107.989, 154.483, 149.022
128, 161.483, 168, 174.506
221.472, 174.539, 200.472, 255.506
239.506, 224.494, 261, 278.978
255.033, 263.472, 300, 282.506
283, 345.483, 314.022, 345.494
338.506, 373.494, 403, 403.472
393.539, 437.494, 443.494, 422
430.483, 430.461, 486.044, 466.506
516.989, 514.494, 487.494, 541.506
510.022, 519.461, 583.011, 596.978
609.044, 593.967, 605.517, 659.494
604.483, 658.472, 642.067, 606.472
705.494, 713.967, 762.011, 732.022
748, 735.494, 785.506, 779.989
778.45, 831.528, 819.517, 735.506
818.011, 785.439, 801.528, 836.022
843.011, 823.539, 841.944, 899.033
817.461, 818.494, 864.033, 847.978
851.978, 821.022, 876.494, 905.978
806.506, 894.022, 890.022, 835.506
872.506, 885.944, 855.011, 909.483
941.011, 840.011, 861.022, 837.956
834.528, 851.967, 838.572, 883.461
819.022, 838.944, 845.033, 848.472
844.022, 788.033, 830.461, 800.506
874.483, 841.528, 788.506, 801.506
800.011, 826.989, 736.967, 723.022
770.517, 727.528, 716.967, 796
778.956, 721.55, 748.517, 686.967
677.494, 685.056, 679.494, 709.956
688.494, 656.55, 648.494, 696.956
614.044, 637.461, 578.033, 610.45
566.55, 601.506, 571.483, 616.011
582.439, 590.539, 613.517, 637
563.011, 593.989, 528.989, 503
596.506, 553.517, 491.978, 535.044
502.472, 468.967, 543.539, 536.989
502.528, 510.989, 449.011, 493
430.989, 470.494, 496.022, 476.472
503.989, 426.022, 525, 431
461.506, 399, 470.483, 426.517
431.517, 456.45, 423.056, 443
434.967, 400.506, 418.506, 374
400, 416.033, 370.461, 384.506
391.494, 337.494, 366.506, 339.494
367.528, 362.506, 340.978, 319.506
306.528, 342.428, 322.528, 332.989
326.539, 340.967, 297.033, 316.978
361.506, 307.506, 327.506, 306.956
300.011, 275.044, 238.506, 270.989
258.978, 279.506, 252.011, 262.506
275.011, 231.978, 249.989, 241.528
218.011, 221.989, 234.989, 190
236.011, 184, 181.989, 185
196.011, 168.506, 172.494, 175
164.494, 162, 161, 169
157.506, 136, 145.494, 134.517
131.506, 127.494, 154.483, 141.011
115.989, 101.011, 118.989, 126.011
110.989, 118.517, 128, 124.494
104.494, 109.011, 88.4944, 101.506
102.506, 108.483, 95.0111, 74.5056
111, 122.978, 109.022, 116.483
117.506, 111.506, 118.978, 111.011
141.506, 136.989, 129.517, 130
124.494, 133.494, 155, 130.494
146.011, 165.494, 163, 145.483
140.506, 157.517, 163.472, 185.022
151.506, 181.483, 208.517, 197.989
223.011, 191.967, 217.033, 239
251.483, 256.472, 211.506, 261.044
253.506, 251.978, 266.506, 274.494
279.989, 300.989, 281.517, 288.494
301.483, 353.539, 301.989, 317.989
342.494, 356.472, 372.528, 365.494
437, 430, 401.011, 491.978
514.978, 520.044, 529.967, 509.483
601.022, 649.956, 714.517, 762.483
857, 865.506, 953.033, 1062.45
1120.98, 1260.96, 1345.54, 1531.49
1766.94, 2029.47, 2402.42, 2806.08
3233.38, 3969.82, 4798.96, 5851.92
7264.73, 9577.79, 12829.6, 17131.8
25046, 39917.4, 70545, 200847
929001, 2178212, 3359877.8, 4782977.5
5410336, 4809442.5, 5230170.5, 5214339
6905054, 7980476.5, 3199748.3, 1110036.5
336180, 172794, 117052, 82008.8
57871.7, 41635.4, 30378.1, 22604.8
17384.6, 13195.1, 10451, 8255.61
6718.77, 5506.52, 4424.69, 3828.57
3185.99, 2665.04, 2329.01, 2065.53
1758.52, 1553.55, 1348.51, 1194.03
1096.46, 933.078, 806.978, 763.011
650.022, 621.989, 581.528, 535.989
503.472, 420.517, 525.517, 390.483
365.506, 326.528, 313.483, 297.517
302.978, 280.022, 241.483, 242.022
214.967, 222.044, 228.483, 165.011
182.506, 148, 152, 160
156.506, 154.494, 142, 130.483
121.011, 111, 119, 139.506
108, 78.4833, 133.022, 106.483
104, 90.5056, 82.5167, 91
84.9889, 77.4944, 80, 101.011
77.5056, 68, 76.9889, 85.5056
65, 56, 51.5056, 83.4944
63.5056, 66.4833, 69.0111, 85.9889
57.0111, 77.4944, 55.0111, 38.4833
47.0111, 57, 51.4944, 57.5056
28.5056, 58, 48.9889, 47.5056
51.5056, 45.4944, 37.5056, 43.9889
34.5056, 59.5056, 48.4944, 31.4944
39.5056, 38, 32, 40.5056
22, 33.4944, 37.4944, 35.0111
15, 50.9778, 40.0111, 45
35.5056, 44.5056, 40, 43
25.4944, 29.4944, 43.0111, 30
27, 29.4944, 27.5056, 40
35, 40.4944, 22.5056, 37.4944
21.5056, 21, 42, 19
10, 25, 36.4944, 20.5056
19, 22.4944, 32.5056, 24
11, 27, 24, 26.9889
25.0111, 14, 28, 18
12, 20, 20, 17
23, 26.4944, 19.5056, 5
20, 23, 28.4944, 19.5056
15.4944, 8.50555, 24, 14
12, 14, 18, 17.4944
17.5056, 19, 14, 9.49445
16.5056, 28, 17.4944, 19.5056
14, 21, 26, 7
13, 20.4944, 12.5056, 17
20, 10, 22, 23
11, 16.4944, 20.5056, 22
9, 19, 17.4944, 27
21.5056, 11, 17, 25.4833
12.5167, 11, 19.4944, 14.5056
14, 11, 11, 17
11, 16, 19, 23
14, 12, 7, 20
14, 8.49445, 17.5056, 11
12, 10, 15.4944, 25
20.4944, 20.0111, 15, 15
14, 20, 0.000000, 15
9, 13.4944, 11.5056, 12
23, 14, 14, 18.9889
13, 32.0111, 7, 8.49445
12.5056, 12.4944, 14.5056, 11
21, 16, 11, 11
11.4944, 12.5056, 17.4944, 13.4944
11.0111, 15, 24, 21
9, 8.49445, 6.50555, 15
31, 14, 12, 11
16, 13, 10, 12
11, 8.49445, 7.50555, 17
15, 7, 10.4944, 19.5056
18, 15, 12.4944, 18.5056
13, 15, 10, 15
4, 19, 13, 21.4944
17.5056, 15, 14, 11
19, 9, 17, 5
20, 16, 20, 21.9889
12.5056, 6.50555, 16, 16.9889
13.0111, 9, 5.98889, 11.0111
17, 26, 9, 19.4944
10.5056, 21, 21, 10
8, 15, 10, 22.4944
17.5056, 11.4944, 18.5056, 12
11.4944, 18.5056, 14, 10.4944
11.5056, 20, 9, 13
19.4944, 8.50555, 6, 18
8, 16, 15, 7
13, 15, 11, 14
17, 11.9889, 14.0111, 9
15, 14, 8, 18
11, 12, 6, 10
7, 19.4944, 16.5056, 13.4944
9.50555, 18, 11, 10
9, 6, 16, 7
21, 12, 8.49445, 16.5056
18, 11, 19, 22
18, 13, 7, 8
8, 9, 8, 8
6, 11.4944, 22.5056, 15
12, 9, 5, 10
15
*END

*BEGIN
*GROUP		=  0
*START		=  0.4
*STOP		=  4.5
*STEP		=  0.01
*OFFSET		=  0.0525
*SPEED		=  20.6484
*SLIT_SPEC	=  0, 1.000mm, 1, 0.000000
*SLIT_SPEC	=  1, 1.000mm, 1, 0.000000
*SLIT_SPEC	=  2, 1.000mm, 1, 0.000000
*KV		=  40
*MA		=  30
*LOW		=  0.000000
*HIGH		=  0.000000
*CTEMPER	=  0, 0.000000
*CTEMPER	=  1, 0.000000
*CTEMPER	=  2, 0.000000
*PAREX		=  0, 0.000000
*PAREX		=  1, 0.000000
*PAREX		=  2, 0.000000
*PAREX		=  3, 0.000000
*PAREX		=  4, 0.000000
*PAREX		=  5, 0.000000
*PAREX		=  6, 0.000000
*PAREX		=  7, 0.000000
*PAREX		=  8, 0.000000
*PAREX		=  9, 0.000000
*PAREX		=  10, 0.000000
*PAREX		=  11, 0.000000
*PAREX		=  12, 0.000000
*PAREX		=  13, 0.000000
*PAREX		=  14, 0.000000
*PAREX		=  15, 0.000000
*FULL_SCALE	=  137287
*INDEX		=  0, 0, 0
*COUNT		=  411
2209187.5, 2236121, 2263551.5, 2285906.5
2307353.5, 2322589, 2336210, 2340791.5
2341027, 2328564, 2306567.5, 2270228
2215853.5, 2136452, 2027597.1, 1888817.6
1719939.8, 1536505.3, 1341549.8, 1148295.8
966077, 800318, 654928, 532075
429409, 348819, 286615, 239436
204556, 177785, 158531, 144818
134286, 125967, 119510, 114997
112803, 109807, 109199, 108903
108759, 108773, 108232, 108664
107755, 106983, 106447, 105402
103506, 102712, 100557, 98393.5
96204, 93906, 91027, 88144.5
84741.5, 81886.5, 78971, 76334
73359.5, 69613, 66631, 63281.5
59859, 56755.5, 54086, 51296
47774.5, 44533, 42558.5, 39612.5
37038.5, 34454.5, 32347.5, 30057.5
27955, 26031.5, 24382.5, 22423.5
20658.5, 19760, 17904, 16674.5
15545.5, 14420.5, 13199.5, 12729
12012, 11146.5, 10884.5, 9963
9665, 9189, 9197.5, 8644.5
8657.5, 8492, 8411.5, 8457.5
8351.5, 8470.5, 8472.5, 8507
8750.5, 8805.5, 9001.5, 9042
9039.5, 9248, 9213.5, 9549.5
9602.5, 9505.5, 9661.5, 10049.5
9994, 10123.5, 9939.5, 9887
9811, 9942, 10064, 10043
9868, 9920.5, 9916.5, 9671.5
9607.5, 9373.5, 9261, 9061.5
8882, 8746.5, 8457, 8269.5
7916.5, 7768, 7559, 7265
6990.5, 6750, 6514, 6239.5
6089.5, 5595, 5491.5, 5185
4940, 4813, 4493, 4226.5
3968.5, 3788, 3487, 3404
3265.5, 3005, 2831, 2699
2654, 2485, 2260.5, 2114.5
2045, 1925, 1886, 1724.5
1677.5, 1687.5, 1685, 1590.5
1539, 1479, 1436, 1477
1463.5, 1459.5, 1522.5, 1498
1514, 1440, 1466, 1554
1546.5, 1682.5, 1626, 1739.5
1710.5, 1677.5, 1780.5, 1908.5
1849.5, 1950.5, 1951.5, 1991
1914, 1984, 1971.5, 2040
1960, 2054, 2057.5, 2035
1977, 2126.5, 2015.5, 2041.5
2059, 1990, 2104.5, 1907.5
1975.5, 1937, 1896, 1914
1959, 1818.5, 1806, 1827.5
1663.5, 1661, 1541, 1476.5
1533.5, 1474.5, 1379.5, 1391
1408, 1299, 1179, 1196
1145.5, 1125, 1065, 998
1020.5, 911.5, 973.001, 856
906.5, 799, 796.001, 712.5
722.5, 684.499, 667.5, 592
601, 623.5, 516.5, 615.5
513.5, 542.5, 551, 517
515, 487, 537, 513.5
478.5, 558.001, 527, 525.999
520, 506, 526.5, 586.5
554, 543, 614, 503.5
557, 595, 595, 614
634.999, 599, 649.5, 673.5
614, 632.5, 694.5, 695.5
677.5, 658, 667, 695.5
696.5, 690.499, 727.5, 717
652, 744, 720.5, 705
751, 719.5, 736.5, 700.5
639, 635.5, 645, 662.5
720, 614, 615.5, 595
602, 576.5, 617.5, 584
612.5, 568.5, 564.5, 504
528, 527.5, 499, 487
457.5, 460, 448.5, 466.5
440, 388, 386, 356
365, 351, 356, 329
350.5, 321, 317.5, 314.5
306, 326, 323, 329
284, 286.5, 311.5, 263
297.5, 240, 305.5, 306.5
304.5, 311, 279.5, 297.5
274, 302.5, 309, 342.5
332.5, 321.5, 282.5, 309
317, 349.5, 361.5, 334.999
394, 368, 361, 368
331.5, 350.5, 414, 384.5
393.5, 337.5, 349.5, 377
359.5, 376.5, 378, 416.5
356.5, 374.5, 374.5, 351.5
375, 371, 369.5, 380
359.5, 339, 350.5, 342
329, 307.5, 347, 365.5
350.5, 298, 334.5, 345.5
330.5, 322.5, 296, 335.5
303, 291.5, 291.5, 261
294, 283, 282.5
*END

*EOF