File: XRD:XRR/LCO/22130_LCOA/22130_LCOA_XRD_002.csv
#twotheta, yobs, ycal, bkg, diff
42.0,20.0,1.0,1.0,1.0
42.04,15.0,1.0,1.0,1.0
42.08,20.0,1.0,1.0,1.0
42.12,12.5056,1.0,1.0,1.0
42.16,22.5056,1.0,1.0,1.0
42.2,21.0,1.0,1.0,1.0
42.24,30.0,1.0,1.0,1.0
42.28,20.5056,1.0,1.0,1.0
42.32,17.0,1.0,1.0,1.0
42.36,20.0,1.0,1.0,1.0
42.4,16.9778,1.0,1.0,1.0
42.44,20.5056,1.0,1.0,1.0
42.48,21.0,1.0,1.0,1.0
42.52,25.0,1.0,1.0,1.0
42.56,30.5056,1.0,1.0,1.0
42.6,20.0,1.0,1.0,1.0
42.64,32.0,1.0,1.0,1.0
42.68,27.5056,1.0,1.0,1.0
42.72,28.4944,1.0,1.0,1.0
42.76,18.5056,1.0,1.0,1.0
42.8,24.0,1.0,1.0,1.0
42.84,16.4944,1.0,1.0,1.0
42.88,13.0,1.0,1.0,1.0
42.92,14.0111,1.0,1.0,1.0
42.96,22.0,1.0,1.0,1.0
43.0,15.0,1.0,1.0,1.0
43.04,27.5056,1.0,1.0,1.0
43.08,18.4944,1.0,1.0,1.0
43.12,28.4944,1.0,1.0,1.0
43.16,30.0,1.0,1.0,1.0
43.2,12.5056,1.0,1.0,1.0
43.24,22.5056,1.0,1.0,1.0
43.28,41.9889,1.0,1.0,1.0
43.32,35.5056,1.0,1.0,1.0
43.36,47.4944,1.0,1.0,1.0
43.4,17.0,1.0,1.0,1.0
43.44,27.5056,1.0,1.0,1.0
43.48,20.5056,1.0,1.0,1.0
43.52,32.5056,1.0,1.0,1.0
43.56,23.0,1.0,1.0,1.0
43.6,32.5056,1.0,1.0,1.0
43.64,43.0,1.0,1.0,1.0
43.68,23.0,1.0,1.0,1.0
43.72,26.4944,1.0,1.0,1.0
43.76,26.0,1.0,1.0,1.0
43.8,29.0,1.0,1.0,1.0
43.84,26.5056,1.0,1.0,1.0
43.88,22.5056,1.0,1.0,1.0
43.92,26.5056,1.0,1.0,1.0
43.96,46.5056,1.0,1.0,1.0
44.0,44.4944,1.0,1.0,1.0
44.04,47.5056,1.0,1.0,1.0
44.08,32.0,1.0,1.0,1.0
44.12,41.9889,1.0,1.0,1.0
44.16,26.4944,1.0,1.0,1.0
44.2,27.0111,1.0,1.0,1.0
44.24,45.5056,1.0,1.0,1.0
44.28,29.4944,1.0,1.0,1.0
44.32,20.9889,1.0,1.0,1.0
44.36,36.0,1.0,1.0,1.0
44.4,34.0,1.0,1.0,1.0
44.44,38.5056,1.0,1.0,1.0
44.48,26.5056,1.0,1.0,1.0
44.52,32.0,1.0,1.0,1.0
44.56,45.5056,1.0,1.0,1.0
44.6,41.5056,1.0,1.0,1.0
44.64,48.5056,1.0,1.0,1.0
44.68,43.0,1.0,1.0,1.0
44.72,55.0,1.0,1.0,1.0
44.76,55.0,1.0,1.0,1.0
44.8,57.9889,1.0,1.0,1.0
44.84,47.0,1.0,1.0,1.0
44.88,41.0,1.0,1.0,1.0
44.92,36.0,1.0,1.0,1.0
44.96,32.5056,1.0,1.0,1.0
45.0,25.5056,1.0,1.0,1.0
45.04,20.4944,1.0,1.0,1.0
45.08,31.4944,1.0,1.0,1.0
45.12,37.0,1.0,1.0,1.0
45.16,51.0,1.0,1.0,1.0
45.2,80.4944,1.0,1.0,1.0
45.24,94.5167,1.0,1.0,1.0
45.28,115.0111,1.0,1.0,1.0
45.32,113.0222,1.0,1.0,1.0
45.36,139.4944,1.0,1.0,1.0
45.4,165.0222,1.0,1.0,1.0
45.44,126.4833,1.0,1.0,1.0
45.48,136.5056,1.0,1.0,1.0
45.52,122.4944,1.0,1.0,1.0
45.56,117.0222,1.0,1.0,1.0
45.6,89.0,1.0,1.0,1.0
45.64,80.9889,1.0,1.0,1.0
45.68,69.5056,1.0,1.0,1.0
45.72,72.0,1.0,1.0,1.0
45.76,134.0,1.0,1.0,1.0
45.8,157.5056,1.0,1.0,1.0
45.84,239.4611,1.0,1.0,1.0
45.88,351.4833,1.0,1.0,1.0
45.92,494.0333,1.0,1.0,1.0
45.96,675.4833,1.0,1.0,1.0
46.0,927.9445,1.0,1.0,1.0
46.04,1123.97,1.0,1.0,1.0
46.08,1378.52,1.0,1.0,1.0
46.12,1763.57,1.0,1.0,1.0
46.16,2087.97,1.0,1.0,1.0
46.2,2236.45,1.0,1.0,1.0
46.24,2412.93,1.0,1.0,1.0
46.28,2742.51,1.0,1.0,1.0
46.32,2843.92,1.0,1.0,1.0
46.36,2926.48,1.0,1.0,1.0
46.4,2862.43,1.0,1.0,1.0
46.44,2828.45,1.0,1.0,1.0
46.48,2796.51,1.0,1.0,1.0
46.52,2585.51,1.0,1.0,1.0
46.56,2296.53,1.0,1.0,1.0
46.6,2039.47,1.0,1.0,1.0
46.64,1779.51,1.0,1.0,1.0
46.68,1525.42,1.0,1.0,1.0
46.72,1259.98,1.0,1.0,1.0
46.76,992.0,1.0,1.0,1.0
46.8,793.5167,1.0,1.0,1.0
46.84,656.5278,1.0,1.0,1.0
46.88,402.0,1.0,1.0,1.0
46.92,264.9889,1.0,1.0,1.0
46.96,143.5056,1.0,1.0,1.0
47.0,127.5167,1.0,1.0,1.0
47.04,135.0,1.0,1.0,1.0
47.08,154.9778,1.0,1.0,1.0
47.12,167.9889,1.0,1.0,1.0
47.16,171.9889,1.0,1.0,1.0
47.2,191.4833,1.0,1.0,1.0
47.24,257.5056,1.0,1.0,1.0
47.28,256.0,1.0,1.0,1.0
47.32,291.4944,1.0,1.0,1.0
47.36,252.0444,1.0,1.0,1.0
47.4,241.4944,1.0,1.0,1.0
47.44,242.4833,1.0,1.0,1.0
47.48,234.5056,1.0,1.0,1.0
47.52,201.4944,1.0,1.0,1.0
47.56,214.0,1.0,1.0,1.0
47.6,159.4833,1.0,1.0,1.0
47.64,151.0,1.0,1.0,1.0
47.68,150.4833,1.0,1.0,1.0
47.72,152.0,1.0,1.0,1.0
47.76,219.5167,1.0,1.0,1.0
47.8,244.5278,1.0,1.0,1.0
47.84,232.9778,1.0,1.0,1.0
47.88,299.5056,1.0,1.0,1.0
47.92,358.0111,1.0,1.0,1.0
47.96,429.0,1.0,1.0,1.0
48.0,484.5056,1.0,1.0,1.0
48.04,542.9778,1.0,1.0,1.0
48.08,617.0333,1.0,1.0,1.0
48.12,668.0444,1.0,1.0,1.0
48.16,804.9667,1.0,1.0,1.0
48.2,974.4722,1.0,1.0,1.0
48.24,1243.48,1.0,1.0,1.0
48.28,1740.99,1.0,1.0,1.0
48.32,2527.57,1.0,1.0,1.0
48.36,4723.99,1.0,1.0,1.0
48.4,11428.1,1.0,1.0,1.0
48.44,161734,1.0,1.0,1.0
48.48,1276837.75,1.0,1.0,1.0
48.52,4578938.0,1.0,1.0,1.0
48.56,772920,1.0,1.0,1.0
48.6,170935,1.0,1.0,1.0
48.64,9073.87,1.0,1.0,1.0
48.68,3474.12,1.0,1.0,1.0
48.72,1846.54,1.0,1.0,1.0
48.76,1105.02,1.0,1.0,1.0
48.8,809.5167,1.0,1.0,1.0
48.84,626.5167,1.0,1.0,1.0
48.88,478.9778,1.0,1.0,1.0
48.92,343.4944,1.0,1.0,1.0
48.96,307.4944,1.0,1.0,1.0
49.0,253.4833,1.0,1.0,1.0
49.04,157.0111,1.0,1.0,1.0
49.08,143.0111,1.0,1.0,1.0
49.12,108.9778,1.0,1.0,1.0
49.16,91.9889,1.0,1.0,1.0
49.2,83.5056,1.0,1.0,1.0
49.24,69.4944,1.0,1.0,1.0
49.28,51.0,1.0,1.0,1.0
49.32,75.4833,1.0,1.0,1.0
49.36,48.5056,1.0,1.0,1.0
49.4,48.0,1.0,1.0,1.0
49.44,39.0,1.0,1.0,1.0
49.48,42.0,1.0,1.0,1.0
49.52,56.0,1.0,1.0,1.0
49.56,38.5056,1.0,1.0,1.0
49.6,57.0,1.0,1.0,1.0
49.64,27.4944,1.0,1.0,1.0
49.68,36.0,1.0,1.0,1.0
49.72,59.5056,1.0,1.0,1.0
49.76,34.9889,1.0,1.0,1.0
49.8,40.4944,1.0,1.0,1.0
49.84,38.4944,1.0,1.0,1.0
49.88,27.9889,1.0,1.0,1.0
49.92,41.4944,1.0,1.0,1.0
49.96,30.5167,1.0,1.0,1.0
50.0,21.4944,1.0,1.0,1.0
50.04,23.0,1.0,1.0,1.0
50.08,30.0,1.0,1.0,1.0
50.12,24.0,1.0,1.0,1.0
50.16,21.0,1.0,1.0,1.0
50.2,19.5056,1.0,1.0,1.0
50.24,24.4944,1.0,1.0,1.0
50.28,29.4833,1.0,1.0,1.0
50.32,33.4944,1.0,1.0,1.0
50.36,31.0,1.0,1.0,1.0
50.4,22.0111,1.0,1.0,1.0
50.44,24.0,1.0,1.0,1.0
50.48,30.5056,1.0,1.0,1.0
50.52,12.5056,1.0,1.0,1.0
50.56,33.5056,1.0,1.0,1.0
50.6,22.0,1.0,1.0,1.0
50.64,17.0111,1.0,1.0,1.0
50.68,20.5056,1.0,1.0,1.0
50.72,31.5056,1.0,1.0,1.0
50.76,24.0,1.0,1.0,1.0
50.8,17.0,1.0,1.0,1.0
50.84,23.0,1.0,1.0,1.0
50.88,22.0,1.0,1.0,1.0
50.92,24.9889,1.0,1.0,1.0
50.96,17.0,1.0,1.0,1.0
51.0,32.0,1.0,1.0,1.0
51.04,24.0111,1.0,1.0,1.0
51.08,20.0111,1.0,1.0,1.0
51.12,11.0,1.0,1.0,1.0
51.16,18.5056,1.0,1.0,1.0
51.2,22.0,1.0,1.0,1.0
51.24,17.0,1.0,1.0,1.0
51.28,21.0,1.0,1.0,1.0
51.32,31.4944,1.0,1.0,1.0
51.36,11.5056,1.0,1.0,1.0
51.4,23.4944,1.0,1.0,1.0
51.44,23.4944,1.0,1.0,1.0
51.48,21.0,1.0,1.0,1.0
51.52,23.9889,1.0,1.0,1.0
51.56,20.0,1.0,1.0,1.0
51.6,14.4944,1.0,1.0,1.0
51.64,16.0,1.0,1.0,1.0
51.68,18.5056,1.0,1.0,1.0
51.72,19.0,1.0,1.0,1.0
51.76,22.9889,1.0,1.0,1.0
51.8,16.9889,1.0,1.0,1.0
51.84,11.5056,1.0,1.0,1.0
51.88,17.9889,1.0,1.0,1.0
51.92,18.0111,1.0,1.0,1.0
51.96,17.0,1.0,1.0,1.0
52.0,20.0,1.0,1.0,1.0