File: XRD:XRR/LCO/22130_LCOA/22130_LCOA_XRD_002_2-Theta_Omega.asc
*TYPE		=  Raw
*CLASS		=  ASCII CLASS
*SAMPLE		=
*COMMENT	=
*FNAME		=  22130_LCOA_XRD_002_2-Theta_Omega.asc
*DATE		=  30-Aug-22 00:09

*GROUP_COUNT	=  1
*GONIO		=  SmartLab(In-plane), 0.000000
*ATTACHMENT	=  Z-Phi Stage
*ASC		=  0, 0, 0.000000, 0.000000
*I_MONOCHRO	=  Ge(220)x2, 0.000000
*FILTER		=  None
*C_MONOCHRO	=  None, 0.000000
*SLIT_NAME	=  0, Incident slit
*SLIT_NAME	=  1, Receiving slit # 1
*SLIT_NAME	=  2, Receiving slit # 2
*COUNTER	=  D/teX Ultra 250, 0
*POS_FORMAT	=  0
*SCAN_AXIS	=  2Theta/Omega
*MEAS_MODE	=  Continuous Scanning
*TARGET		=  29
*XRAY_CHAR	=  K-ALPHA1
*WAVE_LENGTH1	=  1.54059
*WAVE_LENGTH2	=  1.54441
*THICKNESS	=  0, 0.000000
*MU		=  0, 0.000000
*SCAN_MODE	=  2Theta/Omega
*SPEED_DIM	=  sec./step
*XUNIT		=  deg.
*YUNIT		=  counts
*SCALE_MODE	=  1
*REP_COUNT	=  0
*SE_COUNT	=  0
*STD_MATERIAL	=  Unknown, Unknown, 0.000000, 0.000000, 0.000000, 0.000000, 0.000000, 0.000000
*LATT_CONS	=  0, Unknown, Unknown, 0.000000, 0.000000, 0.000000, 0.000000, 0.000000, 0.000000
*SEC_COUNT	=  1
*TSPEC_SIZE	=  0
*EXTRA_SIZE	=  0
*MEMO		=

*BEGIN
*GROUP		=  0
*START		=  42
*STOP		=  52
*STEP		=  0.01
*OFFSET		=  0.228
*SPEED		=  26.0451
*SLIT_SPEC	=  0, 0.400mm, 0.4, 0.000000
*SLIT_SPEC	=  1, 0.400mm, 0.4, 0.000000
*SLIT_SPEC	=  2, 0.400mm, 0.4, 0.000000
*KV		=  40
*MA		=  30
*LOW		=  0.000000
*HIGH		=  0.000000
*CTEMPER	=  0, 0.000000
*CTEMPER	=  1, 0.000000
*CTEMPER	=  2, 0.000000
*PAREX		=  0, 0.000000
*PAREX		=  1, 0.000000
*PAREX		=  2, 0.000000
*PAREX		=  3, 0.000000
*PAREX		=  4, 0.000000
*PAREX		=  5, 0.000000
*PAREX		=  6, 0.000000
*PAREX		=  7, 0.000000
*PAREX		=  8, 0.000000
*PAREX		=  9, 0.000000
*PAREX		=  10, 0.000000
*PAREX		=  11, 0.000000
*PAREX		=  12, 0.000000
*PAREX		=  13, 0.000000
*PAREX		=  14, 0.000000
*PAREX		=  15, 0.000000
*FULL_SCALE	=  350517
*INDEX		=  0, 0, 0
*COUNT		=  1001
20, 17, 25, 10
15, 19, 21.4944, 18.5056
20, 35.4944, 7.50555, 14.4944
12.5056, 32, 52.4944, 21
22.5056, 16.9889, 32.0111, 0.000000
21, 15.4944, 21.5056, 21
30, 19, 30, 26.4944
20.5056, 24, 10.4944, 27.5056
17, 26.4944, 26.5056, 12
20, 20, 20, 20
16.9778, 30.5167, 27.5056, 26.4944
20.5056, 17, 23, 23.4944
21, 21.5056, 24, 15
25, 26, 25, 37.4944
30.5056, 28.4833, 37.5167, 23
20, 21, 18, 28.4944
32, 10.5056, 24.4833, 35.5056
27.5056, 30.5056, 31, 23.4944
28.4944, 22.0111, 25, 22.4944
18.5056, 31, 48, 39
24, 32, 14.4944, 12.5056
16.4944, 18.5056, 17.4944, 7.50555
13, 29, 22, 37.9889
14.0111, 32, 19, 20
22, 13, 21, 18.4944
15, 19.5056, 20, 16.9889
27.5056, 24.5056, 21, 17
18.4944, 17, 25.5056, 6
28.4944, 27.5056, 20, 31
30, 28, 23.4944, 36
12.5056, 12, 33.4944, 44
22.5056, 32.9889, 31.5056, 31
41.9889, 29.5056, 40.0111, 19.4944
35.5056, 21, 22.4944, 32.5056
47.4944, 23.5056, 20, 23
17, 33, 32, 34.4944
27.5056, 36, 26, 19.4944
20.5056, 19, 27, 27.9889
32.5056, 20.4944, 22.0111, 27
23, 23.4944, 29.5056, 25.4944
32.5056, 23.4944, 27.5056, 25
43, 25.4944, 25.5056, 25
23, 22.4944, 40, 36.5056
26.4944, 28, 25.5056, 12
26, 29, 19.9889, 24.0111
29, 20, 21, 33.4944
26.5056, 30.4944, 31.5056, 25.4944
22.5056, 23.4944, 41.5056, 47.4944
26.5056, 34.4944, 28, 38
46.5056, 42, 24.4944, 40.5056
44.4944, 59.5056, 45.9889, 51
47.5056, 37.5056, 48.4944, 46.5056
32, 46, 40, 44
41.9889, 41.5056, 31.5056, 39.4944
26.4944, 47.0111, 35, 43.9889
27.0111, 25, 28, 36.4833
45.5056, 35.5056, 36, 20.5056
29.4944, 17.5056, 33.4944, 26.5056
20.9889, 29.0111, 27, 34.4944
36, 38, 34.5056, 16
34, 19.9889, 19, 30.5056
38.5056, 26.4944, 29.4944, 45
26.5056, 45.4944, 34.5056, 38
32, 28.5056, 45.4944, 32
45.5056, 64, 44, 38.9889
41.5056, 44.5056, 53.4944, 38
48.5056, 50.4944, 42, 76
43, 75, 61.5056, 68
55, 67.9889, 49.0111, 70
55, 44.4944, 79.5056, 61
57.9889, 61.5056, 54, 63.5056
47, 55, 44, 42
41, 49, 53, 46.4944
36, 34.5056, 27, 35.9889
32.5056, 37.4944, 33.9889, 38.5167
25.5056, 39, 34.4944, 34.5056
20.4944, 49, 36.4944, 42.0111
31.4944, 52.9889, 32.0111, 44.5056
37, 51, 37.4944, 56.5056
51, 69.4944, 68.5056, 63
80.4944, 74.5056, 59.4722, 82.5056
94.5167, 80.4944, 68.5056, 109.483
115.011, 114.989, 101.517, 110.978
113.022, 126.472, 102.517, 113
139.494, 112.011, 146.011, 136.472
165.022, 130.989, 128, 132.517
126.483, 137.989, 137.011, 157.494
136.506, 158, 166, 136
122.494, 107, 141.011, 134.989
117.022, 107.494, 98, 111.494
89, 102.011, 90.4833, 74.5167
80.9889, 91, 90, 101.506
69.5056, 89.9778, 93.0222, 78.4833
72, 100.494, 107.011, 109.506
134, 119.494, 135, 156.978
157.506, 170.494, 207.506, 211.011
239.461, 278.539, 308.472, 370.022
351.483, 422.011, 467.956, 512.483
494.033, 583, 583.989, 682.494
675.483, 749.528, 874.45, 782.539
927.944, 953.528, 1047.97, 1107.53
1123.97, 1201.49, 1376.45, 1393.02
1378.52, 1495.52, 1630.41, 1765.99
1763.57, 1908.97, 1872.47, 1996.53
2087.97, 2073.46, 2103.07, 2106.53
2236.45, 2388.97, 2393.08, 2446.49
2412.93, 2595.94, 2662.09, 2632.43
2742.51, 2724.9, 2666.07, 2793.52
2843.92, 2824.52, 2832.61, 2780.97
2926.48, 2977.98, 2968.07, 2943.48
2862.43, 2903.07, 2866.96, 2922.57
2828.45, 2844, 2818, 2765.08
2796.51, 2743.45, 2642.53, 2583.46
2585.51, 2476.99, 2473.55, 2434.46
2296.53, 2320.51, 2235.48, 2145.53
2039.47, 2045.52, 1966.55, 1955.48
1779.51, 1746.42, 1624.18, 1548.99
1525.42, 1423.08, 1388.51, 1302.01
1259.98, 1148.06, 1167.96, 1096.55
992, 933.978, 848.506, 853.483
793.517, 710.033, 643.483, 631.517
656.528, 493.483, 495, 396.033
402, 348.483, 288.989, 318.033
264.989, 242.517, 205, 197.506
143.506, 125.967, 158.517, 136.483
127.517, 119.517, 112.989, 122.494
135, 109.494, 144.517, 139
154.978, 140.517, 161.506, 134.494
167.989, 169, 156.989, 163.022
171.989, 221, 174.506, 200.011
191.483, 230.494, 236.517, 322.978
257.506, 246.517, 270.483, 231.494
256, 250.011, 283.494, 303
291.494, 308, 268, 267.978
252.044, 264.978, 220.517, 247.989
241.494, 256.528, 240.483, 234.011
242.483, 246.483, 218.033, 221.483
234.506, 217.506, 206.989, 179.517
201.494, 189, 203, 179.483
214, 175.517, 146.494, 171.506
159.483, 145.033, 147.989, 144.506
151, 152.494, 173.494, 161
150.483, 189.517, 151.989, 184.011
152, 185.506, 178.494, 176.483
219.517, 221.989, 225.483, 221.506
244.528, 239, 235.494, 218.494
232.978, 296.011, 297.494, 324.506
299.506, 310.978, 343.517, 369.494
358.011, 361.494, 412.494, 393.989
429, 454, 462.494, 454.483
484.506, 539.033, 509.967, 538.011
542.978, 561.022, 596.989, 652.978
617.033, 686, 711.517, 685.428
668.044, 712.989, 734.989, 794.528
804.967, 903.483, 943.428, 984.111
974.472, 1077.97, 1086.51, 1174.99
1243.48, 1421.49, 1494.04, 1625.43
1740.99, 1894.01, 2092.97, 2377.45
2527.57, 2953.81, 3458.99, 4006.86
4723.99, 5680.89, 6938.79, 8512.86
11428.1, 16567, 32068.5, 75394.6
161734, 258675, 397159, 664629
1276837.8, 2843726.5, 5751971.5, 7082459
4578938, 2090137.5, 1045023.8, 879895
772920, 695220, 663105, 428017
170935, 52173.1, 22633.4, 13330.5
9073.87, 6818.71, 5174.17, 4133.99
3474.12, 2831.08, 2473.44, 2090.09
1846.54, 1645, 1458.55, 1264.49
1105.02, 1040.02, 923.506, 872.494
809.517, 747.933, 649.089, 598.483
626.517, 506.044, 440, 456.461
478.978, 435.056, 407.472, 371.033
343.494, 327.967, 306.517, 298.022
307.494, 271.517, 225.461, 248.528
253.483, 207.494, 218.506, 192
157.011, 221.506, 142.989, 172.506
143.011, 143, 130.494, 129.011
108.978, 108.011, 87.4944, 137.011
91.9889, 120.517, 89.9889, 71.0111
83.5056, 100.483, 90.5056, 74
69.4944, 86.4944, 66, 95.0111
51, 55.0111, 60.9889, 60.0111
75.4833, 59.0111, 57.5056, 44.9889
48.5056, 49.4944, 46.5056, 58.5056
48, 30.4944, 44.5056, 36.4944
39, 47, 42.5056, 43.4944
42, 54.5056, 46.9889, 26.0111
56, 38, 24, 71.9889
38.5056, 32, 45.5056, 28.4944
57, 36.4944, 46.5056, 46.5056
27.4944, 46, 34.4944, 38.0111
36, 30.4944, 52, 41
59.5056, 42.4944, 28.5056, 23.4944
34.9889, 48.0111, 45, 35
40.4944, 33.0111, 30.4833, 35.5167
38.4944, 27.5056, 39, 44.4944
27.9889, 27.5167, 31.9889, 36.0111
41.4944, 28.5056, 32.4944, 19.9889
30.5167, 35, 36, 36
21.4944, 35, 22.5056, 23
23, 24, 28.9889, 35.0111
30, 28.9889, 25.0111, 22
24, 23, 32.9889, 21.0111
21, 19.4944, 22.5056, 29.4944
19.5056, 25, 36.4944, 22.5056
24.4944, 26.5056, 24.4944, 42.5056
29.4833, 31.0111, 26.5056, 22
33.4944, 19.4944, 22.5056, 23.5056
31, 24.4944, 23.5056, 17.9889
22.0111, 27, 20, 27
24, 41.4944, 20.5056, 29.4944
30.5056, 24, 26.4944, 14
12.5056, 26, 19, 31.9889
33.5056, 18.5056, 21, 31
22, 22.4944, 28, 14.4944
17.0111, 24, 27.4944, 24
20.5056, 15, 18, 16.4944
31.5056, 23, 13, 18
24, 19, 12, 8
17, 17.4944, 18.5056, 19
23, 20, 17, 23
22, 16.9889, 19.0111, 23
24.9889, 22.5056, 31.4944, 31.5056
17, 18.5056, 16, 15
32, 20, 28, 18.9889
24.0111, 24.4944, 23.5056, 23.9889
20.0111, 24, 20, 25
11, 18, 7.49445, 18
18.5056, 5, 32, 21
22, 22.4944, 21.4833, 21.0222
17, 26, 5.49445, 39.5056
21, 12, 33.9889, 21.0111
31.4944, 30.5056, 18, 8.49445
11.5056, 17.4944, 28.5056, 24.4944
23.4944, 28.5056, 12.4944, 9.01111
23.4944, 15, 18.5056, 30
21, 18, 9, 25
23.9889, 26.0111, 20.4944, 24
20, 36, 16.5056, 26
14.4944, 10.5056, 31, 14
16, 6, 18, 20.4944
18.5056, 23.4944, 24.5056, 20
19, 26.4944, 21.5056, 15
22.9889, 38.5056, 15.5056, 24
16.9889, 18.0111, 24.4944, 22
11.5056, 9, 16, 15
17.9889, 18.0111, 7, 16.9889
18.0111, 19, 13, 21
17, 13, 9.49445, 24.5056
20
*END

*EOF