File: XRD:XRR/LCO/22130_LCOA/22130_LCOA_XRR_2-Theta_Omega.asc
*TYPE		=  Raw
*CLASS		=  ASCII CLASS
*SAMPLE		=
*COMMENT	=
*FNAME		=  22130_LCOA_XRR_2-Theta_Omega.asc
*DATE		=  29-Aug-22 15:20

*GROUP_COUNT	=  1
*GONIO		=  SmartLab(In-plane), 0.000000
*ATTACHMENT	=  Z-Phi Stage
*ASC		=  0, 0, 0.000000, 0.000000
*I_MONOCHRO	=  Ge(220)x2, 0.000000
*FILTER		=  None
*C_MONOCHRO	=  None, 0.000000
*SLIT_NAME	=  0, Incident slit
*SLIT_NAME	=  1, Receiving slit # 1
*SLIT_NAME	=  2, Receiving slit # 2
*COUNTER	=  D/teX Ultra 250, 0
*POS_FORMAT	=  0
*SCAN_AXIS	=  2Theta/Omega
*MEAS_MODE	=  Continuous Scanning
*TARGET		=  29
*XRAY_CHAR	=  K-ALPHA1
*WAVE_LENGTH1	=  1.54059
*WAVE_LENGTH2	=  1.54441
*THICKNESS	=  0, 0.000000
*MU		=  0, 0.000000
*SCAN_MODE	=  2Theta/Omega
*SPEED_DIM	=  sec./step
*XUNIT		=  deg.
*YUNIT		=  counts
*SCALE_MODE	=  1
*REP_COUNT	=  0
*SE_COUNT	=  0
*STD_MATERIAL	=  Unknown, Unknown, 0.000000, 0.000000, 0.000000, 0.000000, 0.000000, 0.000000
*LATT_CONS	=  0, Unknown, Unknown, 0.000000, 0.000000, 0.000000, 0.000000, 0.000000, 0.000000
*SEC_COUNT	=  1
*TSPEC_SIZE	=  0
*EXTRA_SIZE	=  0
*MEMO		=

*BEGIN
*GROUP		=  0
*START		=  0.4
*STOP		=  4.5
*STEP		=  0.01
*OFFSET		=  0.0069
*SPEED		=  20.6484
*SLIT_SPEC	=  0, 1.000mm, 1, 0.000000
*SLIT_SPEC	=  1, 1.000mm, 1, 0.000000
*SLIT_SPEC	=  2, 1.000mm, 1, 0.000000
*KV		=  40
*MA		=  30
*LOW		=  0.000000
*HIGH		=  0.000000
*CTEMPER	=  0, 0.000000
*CTEMPER	=  1, 0.000000
*CTEMPER	=  2, 0.000000
*PAREX		=  0, 0.000000
*PAREX		=  1, 0.000000
*PAREX		=  2, 0.000000
*PAREX		=  3, 0.000000
*PAREX		=  4, 0.000000
*PAREX		=  5, 0.000000
*PAREX		=  6, 0.000000
*PAREX		=  7, 0.000000
*PAREX		=  8, 0.000000
*PAREX		=  9, 0.000000
*PAREX		=  10, 0.000000
*PAREX		=  11, 0.000000
*PAREX		=  12, 0.000000
*PAREX		=  13, 0.000000
*PAREX		=  14, 0.000000
*PAREX		=  15, 0.000000
*FULL_SCALE	=  70425
*INDEX		=  0, 0, 0
*COUNT		=  411
964686, 988938, 1012871, 1033219
1054175.5, 1072000, 1091601, 1107797.5
1122570, 1136356, 1148762.5, 1161157
1168201.5, 1176764.5, 1182601.5, 1187716
1187708.5, 1186157.5, 1180461, 1171817.5
1160535.5, 1142665, 1122281.5, 1094329.5
1064568.5, 1028718.1, 988586, 946071
899687, 849839, 800380, 748249
697938, 646617, 598196, 550156
506538, 462451, 422220, 384520
349985, 317917, 289988, 264466
241289, 222450, 203660, 187829
173173, 161313, 150078, 140161
129829, 121780, 114587, 107164
101026, 95451, 90443, 85049
79888, 76176.5, 72303, 68671
64838.5, 62243, 58997.5, 56601.5
53791.5, 51553, 49432, 46648
45118, 43319, 41382, 39910.5
38381.5, 36651, 35527.5, 34321
32941.5, 31829, 30782.5, 29803.5
28427, 27896.5, 26699, 25728.5
24680.5, 23950.5, 23167.5, 22442
21653.5, 20865, 20218, 19548
18428, 18099, 17313.5, 17078.5
16527, 15912.5, 15651.5, 14889
14275, 13928.5, 13273.5, 12859.5
12372, 12059, 11503, 11164.5
10865, 10654.5, 10435, 10079.5
9676.5, 9354, 9156, 8930
8695, 8636, 8158, 8076
7925, 7814.5, 7423.5, 7305
7191.5, 7091, 6833.5, 6578
6696, 6333.5, 6207.5, 6052.5
5998, 5835.5, 5575, 5525.5
5413.5, 5296.5, 5200, 5016.5
4987, 4814, 4763.5, 4557
4516, 4388.5, 4311, 4150
4087.5, 4010.5, 3729.5, 3683
3595, 3595.5, 3377.5, 3336
3217, 3170.5, 3118, 3015
2946.5, 2872, 2863, 2693
2681.5, 2661, 2576.5, 2488
2533.5, 2390.5, 2393, 2334
2353.5, 2276.5, 2190, 2199.5
2082, 2047.5, 2051.5, 2038.5
2115, 1990, 1913, 1887.5
1929, 1831, 1763.5, 1874
1757, 1746.5, 1692.5, 1634.5
1627.5, 1621, 1639, 1639.5
1541, 1522.5, 1463.5, 1392
1411.5, 1405, 1407.5, 1387.5
1339.5, 1193, 1238.5, 1208
1222.5, 1216, 1174.5, 1211
1171.5, 1144.5, 1128.5, 1111
1131.5, 1085.5, 1016, 958
942, 980.001, 924, 922
927, 895, 871.5, 890
869.5, 915.5, 878, 839
851, 775, 842, 841.5
772, 829.5, 817, 760.5
759, 775, 784, 751.5
722, 719.5, 696, 756.001
690.5, 703.5, 611, 669.5
733.5, 651.501, 656.999, 690.5
709.5, 645, 659.5, 674.5
621.5, 621.5, 612, 570
629.5, 624, 544, 520.5
555.5, 574, 574, 497
535, 514.5, 509.999, 564.5
494, 484.5, 477.5, 450
543, 477, 481, 513.5
457.001, 398.5, 482, 456
475, 458.5, 425.5, 438.5
490, 464.5, 483.5, 432.5
426.5, 416.5, 464, 423
404.5, 424, 480, 379
428, 431.5, 433.5, 457.5
462.5, 461, 432, 352.5
418.5, 398, 391.5, 352
382.5, 445, 401.5, 415
348, 380.5, 372.5, 392
378.5, 354, 407.5, 355.5
403.499, 331.5, 347, 349.5
372.5, 344.5, 359.5, 319
359.5, 362.999, 352, 315
331.5, 362.5, 330.5, 324.5
357, 333, 345.5, 340.5
328.5, 339.5, 343.5, 353.5
335.5, 345, 340.5, 319.5
301, 349.5, 337, 336
356.5, 364, 323, 324.999
320, 332, 318.5, 351.5
331.5, 351, 332, 333.501
316, 342.5, 352.5, 304.5
323, 296.5, 310, 324
309, 312, 329, 304.5
272, 297.5, 304.5, 331
323.5, 310.5, 356, 343.5
299.5, 325, 285.5, 291.5
334, 300, 301, 287
338.5, 301.5, 318, 330
331.5, 321, 296
*END

*EOF