File: XRD:XRR/LCO/22157a_LCOL/22157a_LCOL_XRD.csv
#twotheta, yobs, ycal, bkg, diff
42.0,28.0,1.0,1.0,1.0
42.04,12.5056,1.0,1.0,1.0
42.08,21.0,1.0,1.0,1.0
42.12,24.5056,1.0,1.0,1.0
42.16,23.4944,1.0,1.0,1.0
42.2,31.0,1.0,1.0,1.0
42.24,29.0,1.0,1.0,1.0
42.28,19.0,1.0,1.0,1.0
42.32,24.9889,1.0,1.0,1.0
42.36,39.0,1.0,1.0,1.0
42.4,30.9889,1.0,1.0,1.0
42.44,38.5056,1.0,1.0,1.0
42.48,33.5056,1.0,1.0,1.0
42.52,44.4944,1.0,1.0,1.0
42.56,38.5167,1.0,1.0,1.0
42.6,39.0,1.0,1.0,1.0
42.64,22.0,1.0,1.0,1.0
42.68,20.0,1.0,1.0,1.0
42.72,45.5056,1.0,1.0,1.0
42.76,29.5056,1.0,1.0,1.0
42.8,14.4944,1.0,1.0,1.0
42.84,30.0,1.0,1.0,1.0
42.88,31.0,1.0,1.0,1.0
42.92,17.0,1.0,1.0,1.0
42.96,21.5056,1.0,1.0,1.0
43.0,26.5056,1.0,1.0,1.0
43.04,54.0,1.0,1.0,1.0
43.08,42.0,1.0,1.0,1.0
43.12,64.9889,1.0,1.0,1.0
43.16,56.4833,1.0,1.0,1.0
43.2,51.4944,1.0,1.0,1.0
43.24,60.0,1.0,1.0,1.0
43.28,81.4944,1.0,1.0,1.0
43.32,71.0,1.0,1.0,1.0
43.36,82.0,1.0,1.0,1.0
43.4,64.5056,1.0,1.0,1.0
43.44,48.5056,1.0,1.0,1.0
43.48,62.5056,1.0,1.0,1.0
43.52,25.0,1.0,1.0,1.0
43.56,35.0111,1.0,1.0,1.0
43.6,25.0,1.0,1.0,1.0
43.64,25.9889,1.0,1.0,1.0
43.68,34.5056,1.0,1.0,1.0
43.72,42.9889,1.0,1.0,1.0
43.76,51.0,1.0,1.0,1.0
43.8,65.5167,1.0,1.0,1.0
43.84,73.4944,1.0,1.0,1.0
43.88,113.4833,1.0,1.0,1.0
43.92,108.4944,1.0,1.0,1.0
43.96,133.0,1.0,1.0,1.0
44.0,158.0,1.0,1.0,1.0
44.04,165.0111,1.0,1.0,1.0
44.08,167.0333,1.0,1.0,1.0
44.12,148.5167,1.0,1.0,1.0
44.16,138.4944,1.0,1.0,1.0
44.2,103.9889,1.0,1.0,1.0
44.24,78.9889,1.0,1.0,1.0
44.28,55.0,1.0,1.0,1.0
44.32,41.0,1.0,1.0,1.0
44.36,38.5056,1.0,1.0,1.0
44.4,31.4944,1.0,1.0,1.0
44.44,71.0,1.0,1.0,1.0
44.48,67.4944,1.0,1.0,1.0
44.52,125.4944,1.0,1.0,1.0
44.56,167.9889,1.0,1.0,1.0
44.6,244.5167,1.0,1.0,1.0
44.64,319.0111,1.0,1.0,1.0
44.68,381.4833,1.0,1.0,1.0
44.72,439.4833,1.0,1.0,1.0
44.76,530.45,1.0,1.0,1.0
44.8,509.0333,1.0,1.0,1.0
44.84,528.0333,1.0,1.0,1.0
44.88,438.4722,1.0,1.0,1.0
44.92,393.9778,1.0,1.0,1.0
44.96,329.0111,1.0,1.0,1.0
45.0,221.0,1.0,1.0,1.0
45.04,178.5056,1.0,1.0,1.0
45.08,107.9889,1.0,1.0,1.0
45.12,80.5056,1.0,1.0,1.0
45.16,153.4944,1.0,1.0,1.0
45.2,257.4722,1.0,1.0,1.0
45.24,544.5056,1.0,1.0,1.0
45.28,915.9667,1.0,1.0,1.0
45.32,1447.93,1.0,1.0,1.0
45.36,2201.1,1.0,1.0,1.0
45.4,3031.46,1.0,1.0,1.0
45.44,4056.39,1.0,1.0,1.0
45.48,5306.52,1.0,1.0,1.0
45.52,6716.42,1.0,1.0,1.0
45.56,8036.47,1.0,1.0,1.0
45.6,9436.96,1.0,1.0,1.0
45.64,10793.5,1.0,1.0,1.0
45.68,12131.2,1.0,1.0,1.0
45.72,13385.4,1.0,1.0,1.0
45.76,14416.5,1.0,1.0,1.0
45.8,15775.4,1.0,1.0,1.0
45.84,16270.8,1.0,1.0,1.0
45.88,16765.5,1.0,1.0,1.0
45.92,16891.7,1.0,1.0,1.0
45.96,16650.2,1.0,1.0,1.0
46.0,16561.8,1.0,1.0,1.0
46.04,15386.3,1.0,1.0,1.0
46.08,14373.5,1.0,1.0,1.0
46.12,13210.6,1.0,1.0,1.0
46.16,12161.4,1.0,1.0,1.0
46.2,10498.1,1.0,1.0,1.0
46.24,8820.19,1.0,1.0,1.0
46.28,7522.28,1.0,1.0,1.0
46.32,5919.98,1.0,1.0,1.0
46.36,4711.02,1.0,1.0,1.0
46.4,3618.67,1.0,1.0,1.0
46.44,2445.47,1.0,1.0,1.0
46.48,1670.99,1.0,1.0,1.0
46.52,1064.47,1.0,1.0,1.0
46.56,617.4611,1.0,1.0,1.0
46.6,418.5056,1.0,1.0,1.0
46.64,352.0111,1.0,1.0,1.0
46.68,442.5389,1.0,1.0,1.0
46.72,619.5278,1.0,1.0,1.0
46.76,874.9667,1.0,1.0,1.0
46.8,1118.94,1.0,1.0,1.0
46.84,1413.53,1.0,1.0,1.0
46.88,1542.97,1.0,1.0,1.0
46.92,1819.97,1.0,1.0,1.0
46.96,1874.54,1.0,1.0,1.0
47.0,1881.53,1.0,1.0,1.0
47.04,1839.44,1.0,1.0,1.0
47.08,1809.04,1.0,1.0,1.0
47.12,1679.9,1.0,1.0,1.0
47.16,1511.99,1.0,1.0,1.0
47.2,1329.96,1.0,1.0,1.0
47.24,1156.53,1.0,1.0,1.0
47.28,995.55,1.0,1.0,1.0
47.32,861.0,1.0,1.0,1.0
47.36,885.5278,1.0,1.0,1.0
47.4,1014.98,1.0,1.0,1.0
47.44,1155.45,1.0,1.0,1.0
47.48,1417.47,1.0,1.0,1.0
47.52,1793.47,1.0,1.0,1.0
47.56,2184.48,1.0,1.0,1.0
47.6,2859.96,1.0,1.0,1.0
47.64,3762.62,1.0,1.0,1.0
47.68,4769.38,1.0,1.0,1.0
47.72,6207.43,1.0,1.0,1.0
47.76,8310.06,1.0,1.0,1.0
47.8,12065.1,1.0,1.0,1.0
47.84,19833.6,1.0,1.0,1.0
47.88,48906.707,1.0,1.0,1.0
47.92,293232,1.0,1.0,1.0
47.96,12483457.0,1.0,1.0,1.0
48.0,3012843.0,1.0,1.0,1.0
48.04,158866.375,1.0,1.0,1.0
48.08,38070.9,1.0,1.0,1.0
48.12,15204.3,1.0,1.0,1.0
48.16,7986.0,1.0,1.0,1.0
48.2,5071.08,1.0,1.0,1.0
48.24,3386.53,1.0,1.0,1.0
48.28,2350.11,1.0,1.0,1.0
48.32,1706.0,1.0,1.0,1.0
48.36,1145.94,1.0,1.0,1.0
48.4,865.9778,1.0,1.0,1.0
48.44,614.9889,1.0,1.0,1.0
48.48,437.4944,1.0,1.0,1.0
48.52,351.0,1.0,1.0,1.0
48.56,359.9556,1.0,1.0,1.0
48.6,271.0,1.0,1.0,1.0
48.64,246.5278,1.0,1.0,1.0
48.68,253.5056,1.0,1.0,1.0
48.72,249.4944,1.0,1.0,1.0
48.76,254.4944,1.0,1.0,1.0
48.8,236.0111,1.0,1.0,1.0
48.84,262.5278,1.0,1.0,1.0
48.88,227.5056,1.0,1.0,1.0
48.92,211.4944,1.0,1.0,1.0
48.96,177.4833,1.0,1.0,1.0
49.0,169.5056,1.0,1.0,1.0
49.04,121.0,1.0,1.0,1.0
49.08,118.0222,1.0,1.0,1.0
49.12,85.4944,1.0,1.0,1.0
49.16,61.5056,1.0,1.0,1.0
49.2,35.5056,1.0,1.0,1.0
49.24,29.0111,1.0,1.0,1.0
49.28,25.4944,1.0,1.0,1.0
49.32,30.0111,1.0,1.0,1.0
49.36,19.5056,1.0,1.0,1.0
49.4,46.0,1.0,1.0,1.0
49.44,45.0,1.0,1.0,1.0
49.48,43.5167,1.0,1.0,1.0
49.52,54.4944,1.0,1.0,1.0
49.56,62.0,1.0,1.0,1.0
49.6,73.0111,1.0,1.0,1.0
49.64,55.0,1.0,1.0,1.0
49.68,53.0,1.0,1.0,1.0
49.72,56.5056,1.0,1.0,1.0
49.76,40.0222,1.0,1.0,1.0
49.8,36.9889,1.0,1.0,1.0
49.84,36.0,1.0,1.0,1.0
49.88,19.0,1.0,1.0,1.0
49.92,14.4944,1.0,1.0,1.0
49.96,22.0111,1.0,1.0,1.0
50.0,12.0,1.0,1.0,1.0
50.04,0.0,1.0,1.0,1.0
50.08,16.0,1.0,1.0,1.0
50.12,13.4944,1.0,1.0,1.0
50.16,8.0,1.0,1.0,1.0
50.2,17.9889,1.0,1.0,1.0
50.24,23.0,1.0,1.0,1.0
50.28,34.9889,1.0,1.0,1.0
50.32,14.5056,1.0,1.0,1.0
50.36,26.0,1.0,1.0,1.0
50.4,17.0,1.0,1.0,1.0
50.44,15.0,1.0,1.0,1.0
50.48,17.5056,1.0,1.0,1.0
50.52,25.0,1.0,1.0,1.0
50.56,15.0,1.0,1.0,1.0
50.6,24.0,1.0,1.0,1.0
50.64,13.4944,1.0,1.0,1.0
50.68,12.5056,1.0,1.0,1.0
50.72,6.0,1.0,1.0,1.0
50.76,10.5056,1.0,1.0,1.0
50.8,18.0,1.0,1.0,1.0
50.84,2.0,1.0,1.0,1.0
50.88,14.5056,1.0,1.0,1.0
50.92,9.0,1.0,1.0,1.0
50.96,14.0,1.0,1.0,1.0
51.0,11.0,1.0,1.0,1.0
51.04,18.5056,1.0,1.0,1.0
51.08,8.0,1.0,1.0,1.0
51.12,9.0,1.0,1.0,1.0
51.16,17.0111,1.0,1.0,1.0
51.2,10.0,1.0,1.0,1.0
51.24,13.0,1.0,1.0,1.0
51.28,13.0,1.0,1.0,1.0
51.32,11.4944,1.0,1.0,1.0
51.36,14.0111,1.0,1.0,1.0
51.4,12.4944,1.0,1.0,1.0
51.44,12.0,1.0,1.0,1.0
51.48,11.0,1.0,1.0,1.0
51.52,14.0,1.0,1.0,1.0
51.56,10.0,1.0,1.0,1.0
51.6,13.5056,1.0,1.0,1.0
51.64,18.0,1.0,1.0,1.0
51.68,3.5056,1.0,1.0,1.0
51.72,13.0,1.0,1.0,1.0
51.76,3.4944,1.0,1.0,1.0
51.8,8.0,1.0,1.0,1.0
51.84,4.0,1.0,1.0,1.0
51.88,11.0,1.0,1.0,1.0
51.92,13.0,1.0,1.0,1.0
51.96,11.0,1.0,1.0,1.0
52.0,15.5056,1.0,1.0,1.0