File: XRD:XRR/LCO/22157a_LCOL/22157a_LCOL_XRR_2-Theta_Omega.asc
*TYPE		=  Raw
*CLASS		=  ASCII CLASS
*SAMPLE		=
*COMMENT	=
*FNAME		=  22157a_LCOL_XRR_2-Theta_Omega.asc
*DATE		=  07-Nov-22 14:10

*GROUP_COUNT	=  1
*GONIO		=  SmartLab(In-plane), 0.000000
*ATTACHMENT	=  Z-Phi Stage
*ASC		=  0, 0, 0.000000, 0.000000
*I_MONOCHRO	=  Ge(220)x2, 0.000000
*FILTER		=  None
*C_MONOCHRO	=  None, 0.000000
*SLIT_NAME	=  0, Incident slit
*SLIT_NAME	=  1, Receiving slit # 1
*SLIT_NAME	=  2, Receiving slit # 2
*COUNTER	=  D/teX Ultra 250, 0
*POS_FORMAT	=  0
*SCAN_AXIS	=  2Theta/Omega
*MEAS_MODE	=  Continuous Scanning
*TARGET		=  29
*XRAY_CHAR	=  K-ALPHA1
*WAVE_LENGTH1	=  1.54059
*WAVE_LENGTH2	=  1.54441
*THICKNESS	=  0, 0.000000
*MU		=  0, 0.000000
*SCAN_MODE	=  2Theta/Omega
*SPEED_DIM	=  sec./step
*XUNIT		=  deg.
*YUNIT		=  counts
*SCALE_MODE	=  1
*REP_COUNT	=  0
*SE_COUNT	=  0
*STD_MATERIAL	=  Unknown, Unknown, 0.000000, 0.000000, 0.000000, 0.000000, 0.000000, 0.000000
*LATT_CONS	=  0, Unknown, Unknown, 0.000000, 0.000000, 0.000000, 0.000000, 0.000000, 0.000000
*SEC_COUNT	=  1
*TSPEC_SIZE	=  0
*EXTRA_SIZE	=  0
*MEMO		=

*BEGIN
*GROUP		=  0
*START		=  0.4
*STOP		=  4.5
*STEP		=  0.01
*OFFSET		=  -0.005500
*SPEED		=  5.95853
*SLIT_SPEC	=  0, 1.000mm, 1, 0.000000
*SLIT_SPEC	=  1, 1.000mm, 1, 0.000000
*SLIT_SPEC	=  2, 1.000mm, 1, 0.000000
*KV		=  40
*MA		=  30
*LOW		=  0.000000
*HIGH		=  0.000000
*CTEMPER	=  0, 0.000000
*CTEMPER	=  1, 0.000000
*CTEMPER	=  2, 0.000000
*PAREX		=  0, 0.000000
*PAREX		=  1, 0.000000
*PAREX		=  2, 0.000000
*PAREX		=  3, 0.000000
*PAREX		=  4, 0.000000
*PAREX		=  5, 0.000000
*PAREX		=  6, 0.000000
*PAREX		=  7, 0.000000
*PAREX		=  8, 0.000000
*PAREX		=  9, 0.000000
*PAREX		=  10, 0.000000
*PAREX		=  11, 0.000000
*PAREX		=  12, 0.000000
*PAREX		=  13, 0.000000
*PAREX		=  14, 0.000000
*PAREX		=  15, 0.000000
*FULL_SCALE	=  167085
*INDEX		=  0, 0, 0
*COUNT		=  411
638384, 651973, 664981, 679444
693270, 704743, 717860, 729786
740021, 750045, 761315, 770630
777904, 787711, 794837, 800452
805287, 810275, 811004, 811093
811914, 807878, 802745, 794552
786252, 770119, 752752, 728177
702153, 668430, 629493, 586309
542577, 499051, 454389, 414597
373918, 338642, 305653, 275779
248313, 225064, 202830, 183235
166471, 150554, 136282, 123562
111646, 101154, 92172, 83368.5
76137.5, 69634.5, 63813, 58638.5
53720.5, 50076, 46452, 42788.5
40204, 37106, 35339, 33529
31773.5, 30243.5, 28829, 27685.5
25855, 25237, 24239, 23657.5
22587, 22030.5, 21711.5, 20904.5
20524, 19783.5, 19053.5, 18691
18067.5, 17480.5, 17053.5, 16681
15999, 15523.5, 14893, 14241
13934, 13292.5, 12672.5, 12476.5
11897.5, 11402.5, 10679.5, 10396.5
10051, 9535.5, 9083.5, 8797.5
8303, 7879.5, 7625, 7333.5
6882, 6746, 6433.5, 6157
5655.5, 5373, 5294.5, 4975
4820, 4620, 4245, 4247
4207, 3978.5, 3813, 3673
3660.5, 3475, 3450.5, 3259
3139.5, 3005, 2987, 3083
2874, 2892, 2767.5, 2873
2730, 2746, 2637, 2581
2633, 2516, 2569, 2474.5
2422, 2400, 2347, 2403
2345.5, 2280, 2196, 2222.5
2130.5, 2096, 2096, 2000
2054, 1995, 1871.5, 1854.5
1887, 1790.5, 1750, 1651
1617, 1588.5, 1556.5, 1414.5
1427.5, 1355.5, 1360.5, 1299.5
1185.5, 1167, 1141.5, 1099
1069.5, 1031.5, 967, 931.501
955.5, 876.5, 857, 907.999
768.5, 856, 819, 751
763, 725.5, 693, 691.5
671, 681.5, 719, 671.5
713, 627.5, 671.5, 637
689, 673, 576.5, 652.5
655, 655, 626, 665
671.5, 659, 635.5, 597.5
569.5, 625, 577.5, 602.5
632, 604.5, 570, 559.5
616.5, 609, 582.5, 585
579.5, 505, 540.5, 559
498.5, 564, 515.5, 475
465.5, 468, 433, 454.5
441, 435.5, 426, 432.5
437, 416.5, 384, 379.5
361, 353.5, 365.5, 358
346, 396.5, 318, 361.999
338, 287.5, 316.5, 326.5
324, 284, 292.5, 328
308, 325, 267.5, 277.5
317, 311.5, 296, 328.5
300, 277.5, 324.5, 277
270, 345, 281, 267.5
294.5, 313.5, 291, 300.5
286, 319.5, 279.5, 279.5
308, 355.5, 312, 311.5
303.5, 300, 292, 287
288.5, 300.5, 273.5, 282
265, 265, 258.5, 264
236, 226.5, 288, 266
229, 234.5, 229, 226.5
220.5, 228, 216, 234
210, 225.5, 204, 213
201.5, 205, 209.5, 187.5
200, 192, 196, 201
176.5, 213.5, 198.5, 208
209.5, 181, 160, 210
198, 185.5, 191.5, 177
182.5, 178.5, 198, 202
178.5, 186.5, 195, 178.5
217, 198.5, 200.5, 187.5
183.5, 189.5, 210, 188.5
212.5, 197.5, 158, 188
185.5, 215.5, 185, 157.5
186, 183, 164.5, 196.5
202.5, 179.5, 189, 179.5
149.5, 168, 164, 155
174, 164, 155.5, 172
138.5, 164.5, 145, 136.5
145.5, 168, 167, 143.5
154.5, 161.5, 122, 138.5
128, 180, 134, 120
143, 139, 124, 128
108, 141, 125, 128
125, 121, 154, 124
129, 119.5, 157.5, 124.5
155.5, 132, 142.5, 130
147.5, 151.5, 126.5
*END

*EOF