File: XRD:XRR/LCO/22126_LCON/22126_LCON_XRD_220.csv
#twotheta, yobs, ycal, bkg, diff
42.0,62.4833,1.0,1.0,1.0
42.04,61.0,1.0,1.0,1.0
42.08,73.5056,1.0,1.0,1.0
42.12,74.4944,1.0,1.0,1.0
42.16,82.4944,1.0,1.0,1.0
42.2,88.0111,1.0,1.0,1.0
42.24,69.0,1.0,1.0,1.0
42.28,63.0,1.0,1.0,1.0
42.32,69.0111,1.0,1.0,1.0
42.36,59.0,1.0,1.0,1.0
42.4,62.4833,1.0,1.0,1.0
42.44,62.5056,1.0,1.0,1.0
42.48,73.5056,1.0,1.0,1.0
42.52,82.5056,1.0,1.0,1.0
42.56,75.9889,1.0,1.0,1.0
42.6,85.5167,1.0,1.0,1.0
42.64,84.0,1.0,1.0,1.0
42.68,85.5056,1.0,1.0,1.0
42.72,74.5167,1.0,1.0,1.0
42.76,79.0,1.0,1.0,1.0
42.8,53.9889,1.0,1.0,1.0
42.84,83.4833,1.0,1.0,1.0
42.88,68.9778,1.0,1.0,1.0
42.92,90.4833,1.0,1.0,1.0
42.96,76.0222,1.0,1.0,1.0
43.0,89.5056,1.0,1.0,1.0
43.04,82.5056,1.0,1.0,1.0
43.08,110.4833,1.0,1.0,1.0
43.12,104.0,1.0,1.0,1.0
43.16,84.4944,1.0,1.0,1.0
43.2,88.0,1.0,1.0,1.0
43.24,100.4944,1.0,1.0,1.0
43.28,111.0111,1.0,1.0,1.0
43.32,75.5056,1.0,1.0,1.0
43.36,89.5056,1.0,1.0,1.0
43.4,91.0,1.0,1.0,1.0
43.44,118.0,1.0,1.0,1.0
43.48,112.0,1.0,1.0,1.0
43.52,123.0111,1.0,1.0,1.0
43.56,130.9778,1.0,1.0,1.0
43.6,135.5167,1.0,1.0,1.0
43.64,123.4944,1.0,1.0,1.0
43.68,146.0,1.0,1.0,1.0
43.72,139.5167,1.0,1.0,1.0
43.76,128.0,1.0,1.0,1.0
43.8,132.5056,1.0,1.0,1.0
43.84,118.0,1.0,1.0,1.0
43.88,136.4944,1.0,1.0,1.0
43.92,149.0,1.0,1.0,1.0
43.96,139.4944,1.0,1.0,1.0
44.0,148.9889,1.0,1.0,1.0
44.04,159.5167,1.0,1.0,1.0
44.08,176.4944,1.0,1.0,1.0
44.12,175.9778,1.0,1.0,1.0
44.16,200.55,1.0,1.0,1.0
44.2,178.0,1.0,1.0,1.0
44.24,207.0,1.0,1.0,1.0
44.28,190.0111,1.0,1.0,1.0
44.32,187.4722,1.0,1.0,1.0
44.36,168.4944,1.0,1.0,1.0
44.4,183.5278,1.0,1.0,1.0
44.44,209.9778,1.0,1.0,1.0
44.48,195.0,1.0,1.0,1.0
44.52,223.4944,1.0,1.0,1.0
44.56,204.4722,1.0,1.0,1.0
44.6,244.9889,1.0,1.0,1.0
44.64,303.4944,1.0,1.0,1.0
44.68,317.0222,1.0,1.0,1.0
44.72,327.9889,1.0,1.0,1.0
44.76,373.4722,1.0,1.0,1.0
44.8,347.5389,1.0,1.0,1.0
44.84,400.9667,1.0,1.0,1.0
44.88,342.4722,1.0,1.0,1.0
44.92,386.0333,1.0,1.0,1.0
44.96,390.0222,1.0,1.0,1.0
45.0,354.5167,1.0,1.0,1.0
45.04,354.9667,1.0,1.0,1.0
45.08,329.5056,1.0,1.0,1.0
45.12,322.4944,1.0,1.0,1.0
45.16,338.0,1.0,1.0,1.0
45.2,395.4944,1.0,1.0,1.0
45.24,435.45,1.0,1.0,1.0
45.28,541.4944,1.0,1.0,1.0
45.32,688.0111,1.0,1.0,1.0
45.36,724.9445,1.0,1.0,1.0
45.4,926.0,1.0,1.0,1.0
45.44,1009.49,1.0,1.0,1.0
45.48,1069.02,1.0,1.0,1.0
45.52,1107.52,1.0,1.0,1.0
45.56,1191.01,1.0,1.0,1.0
45.6,1121.44,1.0,1.0,1.0
45.64,1084.49,1.0,1.0,1.0
45.68,1083.09,1.0,1.0,1.0
45.72,979.5278,1.0,1.0,1.0
45.76,1087.99,1.0,1.0,1.0
45.8,1364.53,1.0,1.0,1.0
45.84,1804.93,1.0,1.0,1.0
45.88,2675.99,1.0,1.0,1.0
45.92,4040.03,1.0,1.0,1.0
45.96,5741.33,1.0,1.0,1.0
46.0,8113.83,1.0,1.0,1.0
46.04,10973.1,1.0,1.0,1.0
46.08,14352.5,1.0,1.0,1.0
46.12,18725.8,1.0,1.0,1.0
46.16,23644.1,1.0,1.0,1.0
46.2,28501.9,1.0,1.0,1.0
46.24,33809.6,1.0,1.0,1.0
46.28,39602.9,1.0,1.0,1.0
46.32,44670,1.0,1.0,1.0
46.36,50187.1,1.0,1.0,1.0
46.4,54512,1.0,1.0,1.0
46.44,58845.7,1.0,1.0,1.0
46.48,61823.6,1.0,1.0,1.0
46.52,64029.2,1.0,1.0,1.0
46.56,65111.6,1.0,1.0,1.0
46.6,65515.4,1.0,1.0,1.0
46.64,65030.7,1.0,1.0,1.0
46.68,63169.5,1.0,1.0,1.0
46.72,61355.4,1.0,1.0,1.0
46.76,58869.7,1.0,1.0,1.0
46.8,57453.6,1.0,1.0,1.0
46.84,57820.8,1.0,1.0,1.0
46.88,62663.25,1.0,1.0,1.0
46.92,83400.1,1.0,1.0,1.0
46.96,159820,1.0,1.0,1.0
47.0,619703,1.0,1.0,1.0
47.04,96931360.0,1.0,1.0,1.0
47.08,462118.125,1.0,1.0,1.0
47.12,104253,1.0,1.0,1.0
47.16,40806.5,1.0,1.0,1.0
47.2,19064.3,1.0,1.0,1.0
47.24,9820.08,1.0,1.0,1.0
47.28,4884.94,1.0,1.0,1.0
47.32,2461.09,1.0,1.0,1.0
47.36,1145.03,1.0,1.0,1.0
47.4,493.0222,1.0,1.0,1.0
47.44,377.5167,1.0,1.0,1.0
47.48,473.0111,1.0,1.0,1.0
47.52,698.9778,1.0,1.0,1.0
47.56,939.0333,1.0,1.0,1.0
47.6,1008.52,1.0,1.0,1.0
47.64,1119.49,1.0,1.0,1.0
47.68,1218.53,1.0,1.0,1.0
47.72,1124.98,1.0,1.0,1.0
47.76,973.45,1.0,1.0,1.0
47.8,846.9667,1.0,1.0,1.0
47.84,629.5167,1.0,1.0,1.0
47.88,520.9778,1.0,1.0,1.0
47.92,342.4944,1.0,1.0,1.0
47.96,262.4944,1.0,1.0,1.0
48.0,163.4944,1.0,1.0,1.0
48.04,141.0,1.0,1.0,1.0
48.08,114.5056,1.0,1.0,1.0
48.12,110.0111,1.0,1.0,1.0
48.16,168.5167,1.0,1.0,1.0
48.2,202.0222,1.0,1.0,1.0
48.24,218.0,1.0,1.0,1.0
48.28,282.9778,1.0,1.0,1.0
48.32,283.0,1.0,1.0,1.0
48.36,289.0111,1.0,1.0,1.0
48.4,277.9778,1.0,1.0,1.0
48.44,245.9889,1.0,1.0,1.0
48.48,236.0,1.0,1.0,1.0
48.52,176.5056,1.0,1.0,1.0
48.56,138.0111,1.0,1.0,1.0
48.6,158.5167,1.0,1.0,1.0
48.64,130.0,1.0,1.0,1.0
48.68,118.9889,1.0,1.0,1.0
48.72,89.5056,1.0,1.0,1.0
48.76,93.0,1.0,1.0,1.0
48.8,88.5278,1.0,1.0,1.0
48.84,111.5056,1.0,1.0,1.0
48.88,131.0,1.0,1.0,1.0
48.92,124.5167,1.0,1.0,1.0
48.96,92.0111,1.0,1.0,1.0
49.0,113.5056,1.0,1.0,1.0
49.04,122.5056,1.0,1.0,1.0
49.08,114.9889,1.0,1.0,1.0
49.12,100.9889,1.0,1.0,1.0
49.16,91.0,1.0,1.0,1.0
49.2,99.0,1.0,1.0,1.0
49.24,90.4944,1.0,1.0,1.0
49.28,70.9889,1.0,1.0,1.0
49.32,95.0111,1.0,1.0,1.0
49.36,84.4833,1.0,1.0,1.0
49.4,75.0111,1.0,1.0,1.0
49.44,68.4944,1.0,1.0,1.0
49.48,76.0,1.0,1.0,1.0
49.52,66.4944,1.0,1.0,1.0
49.56,89.0111,1.0,1.0,1.0
49.6,76.4944,1.0,1.0,1.0
49.64,80.4944,1.0,1.0,1.0
49.68,84.0111,1.0,1.0,1.0
49.72,94.0111,1.0,1.0,1.0
49.76,61.4944,1.0,1.0,1.0
49.8,69.0111,1.0,1.0,1.0
49.84,76.5056,1.0,1.0,1.0
49.88,52.9889,1.0,1.0,1.0
49.92,51.0,1.0,1.0,1.0
49.96,66.4833,1.0,1.0,1.0
50.0,39.0111,1.0,1.0,1.0
50.04,46.4833,1.0,1.0,1.0
50.08,61.0,1.0,1.0,1.0
50.12,61.4944,1.0,1.0,1.0
50.16,67.4944,1.0,1.0,1.0
50.2,57.0,1.0,1.0,1.0
50.24,51.5056,1.0,1.0,1.0
50.28,52.0,1.0,1.0,1.0
50.32,55.9889,1.0,1.0,1.0
50.36,35.5056,1.0,1.0,1.0
50.4,67.0,1.0,1.0,1.0
50.44,57.0,1.0,1.0,1.0
50.48,55.4944,1.0,1.0,1.0
50.52,40.5056,1.0,1.0,1.0
50.56,55.5056,1.0,1.0,1.0
50.6,45.0111,1.0,1.0,1.0
50.64,50.0,1.0,1.0,1.0
50.68,46.4944,1.0,1.0,1.0
50.72,43.0,1.0,1.0,1.0
50.76,49.5167,1.0,1.0,1.0
50.8,45.0,1.0,1.0,1.0
50.84,37.0,1.0,1.0,1.0
50.88,50.0,1.0,1.0,1.0
50.92,67.0111,1.0,1.0,1.0
50.96,45.0,1.0,1.0,1.0
51.0,59.5056,1.0,1.0,1.0
51.04,52.5056,1.0,1.0,1.0
51.08,49.0,1.0,1.0,1.0
51.12,39.4944,1.0,1.0,1.0
51.16,57.9889,1.0,1.0,1.0
51.2,42.5056,1.0,1.0,1.0
51.24,29.0,1.0,1.0,1.0
51.28,44.5167,1.0,1.0,1.0
51.32,58.5056,1.0,1.0,1.0
51.36,46.0,1.0,1.0,1.0
51.4,28.0,1.0,1.0,1.0
51.44,35.5056,1.0,1.0,1.0
51.48,35.0,1.0,1.0,1.0
51.52,51.5056,1.0,1.0,1.0
51.56,35.5056,1.0,1.0,1.0
51.6,50.5056,1.0,1.0,1.0
51.64,46.4944,1.0,1.0,1.0
51.68,26.0,1.0,1.0,1.0
51.72,49.4944,1.0,1.0,1.0
51.76,34.5056,1.0,1.0,1.0
51.8,41.0,1.0,1.0,1.0
51.84,42.0,1.0,1.0,1.0
51.88,34.0111,1.0,1.0,1.0
51.92,36.0111,1.0,1.0,1.0
51.96,42.9889,1.0,1.0,1.0
52.0,35.0,1.0,1.0,1.0