File: XRD:XRR/LCO/22126_LCON/22126_LCON_XRR_2-Theta_Omega.asc
*TYPE		=  Raw
*CLASS		=  ASCII CLASS
*SAMPLE		=
*COMMENT	=
*FNAME		=  22126_LCON_XRR_2-Theta_Omega.asc
*DATE		=  23-Aug-22 12:05

*GROUP_COUNT	=  1
*GONIO		=  SmartLab(In-plane), 0.000000
*ATTACHMENT	=  Z-Phi Stage
*ASC		=  0, 0, 0.000000, 0.000000
*I_MONOCHRO	=  Ge(220)x2, 0.000000
*FILTER		=  None
*C_MONOCHRO	=  None, 0.000000
*SLIT_NAME	=  0, Incident slit
*SLIT_NAME	=  1, Receiving slit # 1
*SLIT_NAME	=  2, Receiving slit # 2
*COUNTER	=  D/teX Ultra 250, 0
*POS_FORMAT	=  0
*SCAN_AXIS	=  2Theta/Omega
*MEAS_MODE	=  Continuous Scanning
*TARGET		=  29
*XRAY_CHAR	=  K-ALPHA1
*WAVE_LENGTH1	=  1.54059
*WAVE_LENGTH2	=  1.54441
*THICKNESS	=  0, 0.000000
*MU		=  0, 0.000000
*SCAN_MODE	=  2Theta/Omega
*SPEED_DIM	=  sec./step
*XUNIT		=  deg.
*YUNIT		=  counts
*SCALE_MODE	=  1
*REP_COUNT	=  0
*SE_COUNT	=  0
*STD_MATERIAL	=  Unknown, Unknown, 0.000000, 0.000000, 0.000000, 0.000000, 0.000000, 0.000000
*LATT_CONS	=  0, Unknown, Unknown, 0.000000, 0.000000, 0.000000, 0.000000, 0.000000, 0.000000
*SEC_COUNT	=  1
*TSPEC_SIZE	=  0
*EXTRA_SIZE	=  0
*MEMO		=

*BEGIN
*GROUP		=  0
*START		=  0.4
*STOP		=  4.5
*STEP		=  0.01
*OFFSET		=  -0.002100
*SPEED		=  23.9588
*SLIT_SPEC	=  0, 1.000mm, 1, 0.000000
*SLIT_SPEC	=  1, 1.000mm, 1, 0.000000
*SLIT_SPEC	=  2, 1.000mm, 1, 0.000000
*KV		=  40
*MA		=  30
*LOW		=  0.000000
*HIGH		=  0.000000
*CTEMPER	=  0, 0.000000
*CTEMPER	=  1, 0.000000
*CTEMPER	=  2, 0.000000
*PAREX		=  0, 0.000000
*PAREX		=  1, 0.000000
*PAREX		=  2, 0.000000
*PAREX		=  3, 0.000000
*PAREX		=  4, 0.000000
*PAREX		=  5, 0.000000
*PAREX		=  6, 0.000000
*PAREX		=  7, 0.000000
*PAREX		=  8, 0.000000
*PAREX		=  9, 0.000000
*PAREX		=  10, 0.000000
*PAREX		=  11, 0.000000
*PAREX		=  12, 0.000000
*PAREX		=  13, 0.000000
*PAREX		=  14, 0.000000
*PAREX		=  15, 0.000000
*FULL_SCALE	=  242208
*INDEX		=  0, 0, 0
*COUNT		=  411
3934820.8, 4009590.5, 4076726.5, 4141912.5
4213391, 4280238.5, 4337977.5, 4399676
4456570, 4509447.5, 4561081.5, 4612395
4653720, 4692405.5, 4726629, 4753450
4775334.5, 4790891, 4796010, 4798708
4789086.5, 4764642.5, 4728902.5, 4677874.5
4607358.5, 4520633.5, 4414377, 4277841.5
4119981.3, 3929765.8, 3706253.8, 3451950.8
3165912.8, 2857839.3, 2538180.3, 2228821.8
1934979.3, 1681022.3, 1465998.3, 1292035.1
1156689.1, 1048972.1, 964944, 900039
844550, 799748, 761363, 726803
693483, 661665, 629006, 599001
565604, 536672, 505119, 476046
447465, 419674, 390947, 365038
340974, 317917, 295953, 275072
256032, 238644, 222672, 207879
194311, 182649, 171111, 161996
153130, 145547, 139178, 133782
128731, 123954, 120308, 117860
114446, 111548, 108858, 107583
105295, 104449, 102039, 100811
99387, 97655.5, 96215, 94168
92330.5, 90324.5, 87832.5, 86730.5
83891, 81689.5, 79913.5, 76700.5
74966.5, 71739.5, 69520, 66547
64172.5, 61780, 59092, 56349
54136.5, 51648, 49420, 47337
44996.5, 43216.5, 40763.5, 39368.5
37525, 35876, 33964, 32646
31656, 30207, 29157.5, 28082
27548.5, 26664.5, 26223, 25685
25038, 24659.5, 24180.5, 24352.5
23857, 23643.5, 23569.5, 23206.5
23173, 22942, 22851.5, 22526
22508.5, 22425.5, 22315.5, 22161.5
21726, 21528, 21240, 20936.5
20807, 20269.5, 19804.5, 19440.5
18964.5, 18599, 18061.5, 17686
17356.5, 17008, 16433.5, 15867.5
15322.5, 14949.5, 14418, 13526
13435.5, 12727, 12470, 11816.5
11454, 11108.5, 10690.5, 10161.5
10028, 9638.5, 9373.5, 8948.5
8583, 8483.5, 8176.5, 7961.5
7917, 7677, 7679.5, 7566.5
7284.5, 7250.5, 7134.5, 7166.5
7204.5, 6948, 6979, 6880.5
6975, 6965.5, 7001.5, 6884.5
6797.5, 6979, 6766, 6859.5
6614, 6674, 6625.5, 6744.5
6493, 6497, 6301.5, 6441
6054, 6133.5, 5984, 5838
5801, 5624, 5501, 5479.5
5339.5, 5261, 4959, 4847
4761.5, 4586, 4513, 4562.5
4194, 4180.5, 3961.5, 3941
3833.5, 3848, 3685, 3595.5
3490.5, 3464, 3342, 3245.5
3064.5, 3227, 2970, 3046
3035.5, 2925, 2817.5, 2894.5
2932, 2855, 2845.5, 2668
2850.5, 2869.5, 2843, 2879.5
2755, 2910.5, 2896, 2904.5
2861.5, 2806, 2753.5, 2739
2795, 2689.5, 2658.5, 2660.5
2722, 2645, 2615, 2565.5
2641, 2540.5, 2499, 2579
2474, 2317.5, 2306, 2338
2383.5, 2174, 2233.5, 2123.5
2113, 2009, 1912.5, 2041.5
1921.5, 1998.5, 1839.5, 1801.5
1808.5, 1807.5, 1660, 1760.5
1680.5, 1630.5, 1639, 1563
1607.5, 1588, 1604.5, 1591.5
1489.5, 1531.5, 1536.5, 1561
1577, 1476.5, 1542.5, 1469
1494, 1540.5, 1525, 1512.5
1509.5, 1483, 1518.5, 1476
1489, 1482, 1492.5, 1489
1494, 1426, 1436.5, 1381.5
1462.5, 1477.5, 1419, 1338.5
1424, 1391, 1332, 1362.5
1286, 1223, 1334.5, 1297.5
1222.5, 1203.5, 1227.5, 1237.5
1189.5, 1228.5, 1210, 1172
1173, 1113.5, 1108, 1073.5
1027.5, 1101, 1001, 1083.5
1057, 1047, 974.999, 974.5
1040, 975.5, 1011, 999.5
974.5, 976.5, 906, 880.5
929.5, 921, 963.5, 954.5
937.5, 976, 920, 898.5
961, 894, 967, 910.5
915.5, 942, 990.5, 961.5
944, 909, 908, 922.5
919.5, 955.5, 918, 873.5
824, 900, 873, 886.5
889.5, 807, 811.5, 788.5
786, 807, 797.5, 797.5
819.5, 777.5, 816, 748
808.5, 812.5, 753.5, 693
743, 736.5, 688.001
*END

*EOF