File: XRD:XRR/STO/22149_STOL/22149_STOL_XRD.csv
#twotheta, yobs, ycal, bkg, diff
42.0,12.0,1.0,1.0,1.0
42.05,23.0,1.0,1.0,1.0
42.1,8.0,1.0,1.0,1.0
42.15,8.4944,1.0,1.0,1.0
42.2,19.0,1.0,1.0,1.0
42.25,18.9889,1.0,1.0,1.0
42.3,25.0,1.0,1.0,1.0
42.35,17.0,1.0,1.0,1.0
42.4,36.0,1.0,1.0,1.0
42.45,25.0,1.0,1.0,1.0
42.5,27.0111,1.0,1.0,1.0
42.55,26.0,1.0,1.0,1.0
42.6,23.4944,1.0,1.0,1.0
42.65,54.4944,1.0,1.0,1.0
42.7,55.5056,1.0,1.0,1.0
42.75,36.0,1.0,1.0,1.0
42.8,32.9889,1.0,1.0,1.0
42.85,43.0111,1.0,1.0,1.0
42.9,53.0,1.0,1.0,1.0
42.95,41.4944,1.0,1.0,1.0
43.0,53.0,1.0,1.0,1.0
43.05,51.0,1.0,1.0,1.0
43.1,35.4944,1.0,1.0,1.0
43.15,23.5056,1.0,1.0,1.0
43.2,42.4944,1.0,1.0,1.0
43.25,28.0,1.0,1.0,1.0
43.3,17.0,1.0,1.0,1.0
43.35,27.0,1.0,1.0,1.0
43.4,22.0,1.0,1.0,1.0
43.45,31.5056,1.0,1.0,1.0
43.5,20.0,1.0,1.0,1.0
43.55,23.0,1.0,1.0,1.0
43.6,25.0,1.0,1.0,1.0
43.65,10.0,1.0,1.0,1.0
43.7,37.4944,1.0,1.0,1.0
43.75,31.4944,1.0,1.0,1.0
43.8,44.0,1.0,1.0,1.0
43.85,55.9889,1.0,1.0,1.0
43.9,126.5056,1.0,1.0,1.0
43.95,87.0,1.0,1.0,1.0
44.0,154.0111,1.0,1.0,1.0
44.05,172.0111,1.0,1.0,1.0
44.1,198.0,1.0,1.0,1.0
44.15,255.0,1.0,1.0,1.0
44.2,251.9889,1.0,1.0,1.0
44.25,315.4944,1.0,1.0,1.0
44.3,357.4722,1.0,1.0,1.0
44.35,360.5167,1.0,1.0,1.0
44.4,445.0444,1.0,1.0,1.0
44.45,485.9889,1.0,1.0,1.0
44.5,536.4722,1.0,1.0,1.0
44.55,623.9667,1.0,1.0,1.0
44.6,650.0667,1.0,1.0,1.0
44.65,648.4722,1.0,1.0,1.0
44.7,712.0333,1.0,1.0,1.0
44.75,722.4944,1.0,1.0,1.0
44.8,763.4389,1.0,1.0,1.0
44.85,783.0111,1.0,1.0,1.0
44.9,844.4944,1.0,1.0,1.0
44.95,923.4611,1.0,1.0,1.0
45.0,840.9778,1.0,1.0,1.0
45.05,901.0111,1.0,1.0,1.0
45.1,882.5167,1.0,1.0,1.0
45.15,921.5389,1.0,1.0,1.0
45.2,961.0,1.0,1.0,1.0
45.25,899.9889,1.0,1.0,1.0
45.3,899.45,1.0,1.0,1.0
45.35,858.4944,1.0,1.0,1.0
45.4,885.0,1.0,1.0,1.0
45.45,896.5278,1.0,1.0,1.0
45.5,743.4944,1.0,1.0,1.0
45.55,730.5056,1.0,1.0,1.0
45.6,666.4944,1.0,1.0,1.0
45.65,647.9889,1.0,1.0,1.0
45.7,613.0,1.0,1.0,1.0
45.75,570.0111,1.0,1.0,1.0
45.8,520.45,1.0,1.0,1.0
45.85,503.4944,1.0,1.0,1.0
45.9,429.4833,1.0,1.0,1.0
45.95,460.5056,1.0,1.0,1.0
46.0,421.9556,1.0,1.0,1.0
46.05,381.0,1.0,1.0,1.0
46.1,357.4833,1.0,1.0,1.0
46.15,323.0222,1.0,1.0,1.0
46.2,304.9889,1.0,1.0,1.0
46.25,286.9556,1.0,1.0,1.0
46.3,280.5056,1.0,1.0,1.0
46.35,282.5056,1.0,1.0,1.0
46.4,252.9889,1.0,1.0,1.0
46.45,260.5167,1.0,1.0,1.0
46.5,281.9889,1.0,1.0,1.0
46.55,264.0111,1.0,1.0,1.0
46.6,257.5056,1.0,1.0,1.0
46.65,230.9889,1.0,1.0,1.0
46.7,303.5167,1.0,1.0,1.0
46.75,271.4833,1.0,1.0,1.0
46.8,293.4722,1.0,1.0,1.0
46.85,338.5278,1.0,1.0,1.0
46.9,321.5056,1.0,1.0,1.0
46.95,320.0222,1.0,1.0,1.0
47.0,365.5167,1.0,1.0,1.0
47.05,503.9667,1.0,1.0,1.0
47.1,445.4944,1.0,1.0,1.0
47.15,412.4944,1.0,1.0,1.0
47.2,428.4944,1.0,1.0,1.0
47.25,488.5389,1.0,1.0,1.0
47.3,504.5056,1.0,1.0,1.0
47.35,537.5278,1.0,1.0,1.0
47.4,565.0333,1.0,1.0,1.0
47.45,637.5167,1.0,1.0,1.0
47.5,724.9889,1.0,1.0,1.0
47.55,851.9889,1.0,1.0,1.0
47.6,1009.44,1.0,1.0,1.0
47.65,1299.48,1.0,1.0,1.0
47.7,1872.49,1.0,1.0,1.0
47.75,2949.06,1.0,1.0,1.0
47.8,7465.91,1.0,1.0,1.0
47.85,26719.5,1.0,1.0,1.0
47.9,136698,1.0,1.0,1.0
47.95,19061714.0,1.0,1.0,1.0
48.0,430230,1.0,1.0,1.0
48.05,76418.9,1.0,1.0,1.0
48.1,18839,1.0,1.0,1.0
48.15,6371.66,1.0,1.0,1.0
48.2,2996.02,1.0,1.0,1.0
48.25,1629.04,1.0,1.0,1.0
48.3,1127.54,1.0,1.0,1.0
48.35,820.5056,1.0,1.0,1.0
48.4,617.4944,1.0,1.0,1.0
48.45,458.9778,1.0,1.0,1.0
48.5,361.5056,1.0,1.0,1.0
48.55,235.4833,1.0,1.0,1.0
48.6,175.4833,1.0,1.0,1.0
48.65,152.9889,1.0,1.0,1.0
48.7,116.0,1.0,1.0,1.0
48.75,108.9889,1.0,1.0,1.0
48.8,77.0,1.0,1.0,1.0
48.85,56.4944,1.0,1.0,1.0
48.9,71.0,1.0,1.0,1.0
48.95,73.5056,1.0,1.0,1.0
49.0,54.4944,1.0,1.0,1.0
49.05,45.0,1.0,1.0,1.0
49.1,31.5056,1.0,1.0,1.0
49.15,43.9889,1.0,1.0,1.0
49.2,41.0,1.0,1.0,1.0
49.25,36.5056,1.0,1.0,1.0
49.3,42.9889,1.0,1.0,1.0
49.35,40.0,1.0,1.0,1.0
49.4,35.0,1.0,1.0,1.0
49.45,40.0,1.0,1.0,1.0
49.5,36.5056,1.0,1.0,1.0
49.55,23.9889,1.0,1.0,1.0
49.6,23.0,1.0,1.0,1.0
49.65,21.0,1.0,1.0,1.0
49.7,15.5056,1.0,1.0,1.0
49.75,21.0,1.0,1.0,1.0
49.8,26.0,1.0,1.0,1.0
49.85,20.0,1.0,1.0,1.0
49.9,29.0,1.0,1.0,1.0
49.95,19.0,1.0,1.0,1.0
50.0,19.0,1.0,1.0,1.0
50.05,22.4944,1.0,1.0,1.0
50.1,10.0,1.0,1.0,1.0
50.15,9.5056,1.0,1.0,1.0
50.2,9.4944,1.0,1.0,1.0
50.25,12.5056,1.0,1.0,1.0
50.3,11.4944,1.0,1.0,1.0
50.35,13.0,1.0,1.0,1.0
50.4,17.0,1.0,1.0,1.0
50.45,18.0,1.0,1.0,1.0
50.5,12.0111,1.0,1.0,1.0
50.55,17.0,1.0,1.0,1.0
50.6,5.0,1.0,1.0,1.0
50.65,8.5056,1.0,1.0,1.0
50.7,13.5056,1.0,1.0,1.0
50.75,0.0,1.0,1.0,1.0
50.8,12.0,1.0,1.0,1.0
50.85,7.0,1.0,1.0,1.0
50.9,9.0111,1.0,1.0,1.0
50.95,19.4944,1.0,1.0,1.0
51.0,7.0,1.0,1.0,1.0
51.05,15.4944,1.0,1.0,1.0
51.1,5.0,1.0,1.0,1.0
51.15,12.0,1.0,1.0,1.0
51.2,8.5056,1.0,1.0,1.0
51.25,15.0,1.0,1.0,1.0
51.3,7.0,1.0,1.0,1.0
51.35,7.5056,1.0,1.0,1.0
51.4,4.0,1.0,1.0,1.0
51.45,9.0,1.0,1.0,1.0
51.5,8.0,1.0,1.0,1.0
51.55,14.0,1.0,1.0,1.0
51.6,2.0,1.0,1.0,1.0
51.65,4.0,1.0,1.0,1.0
51.7,5.0,1.0,1.0,1.0
51.75,13.0,1.0,1.0,1.0
51.8,9.0,1.0,1.0,1.0
51.85,3.0,1.0,1.0,1.0
51.9,6.0,1.0,1.0,1.0
51.95,11.0,1.0,1.0,1.0
52.0,3.5056,1.0,1.0,1.0
0.44,2450486.5,1.0,1.0,1.0
0.49,2727782.5,1.0,1.0,1.0
0.54,2976212.5,1.0,1.0,1.0
0.59,3144648.5,1.0,1.0,1.0
0.64,3206102.5,1.0,1.0,1.0
0.69,2969264.0,1.0,1.0,1.0
0.74,2173446.75,1.0,1.0,1.0
0.79,1.04196e+06,1.0,1.0,1.0
0.84,406279,1.0,1.0,1.0
0.89,186236,1.0,1.0,1.0
0.94,102775,1.0,1.0,1.0
0.99,70143,1.0,1.0,1.0
1.04,56261.5,1.0,1.0,1.0
1.09,51084.0,1.0,1.0,1.0
1.14,49519,1.0,1.0,1.0
1.19,48135.5,1.0,1.0,1.0
1.24,46960.5,1.0,1.0,1.0
1.29,45260.5,1.0,1.0,1.0
1.34,42439.5,1.0,1.0,1.0
1.39,39076.5,1.0,1.0,1.0
1.44,35911.5,1.0,1.0,1.0
1.49,31836.5,1.0,1.0,1.0
1.54,28070.0,1.0,1.0,1.0
1.59,24247.502,1.0,1.0,1.0
1.64,20081.5,1.0,1.0,1.0
1.69,16470.002,1.0,1.0,1.0
1.74,13467.5,1.0,1.0,1.0
1.79,10849.5,1.0,1.0,1.0
1.84,8610.499,1.0,1.0,1.0
1.89,6650.0,1.0,1.0,1.0
1.94,5284.5,1.0,1.0,1.0
1.99,3993.0,1.0,1.0,1.0
2.04,3205,1.0,1.0,1.0
2.09,2718.5,1.0,1.0,1.0
2.14,2338.5,1.0,1.0,1.0
2.19,2343.5,1.0,1.0,1.0
2.24,2295.5,1.0,1.0,1.0
2.29,2225.5,1.0,1.0,1.0
2.34,2329.0,1.0,1.0,1.0
2.39,2424.999,1.0,1.0,1.0
2.44,2634.5,1.0,1.0,1.0
2.49,2604.5,1.0,1.0,1.0
2.54,2634.5,1.0,1.0,1.0
2.59,2547.5,1.0,1.0,1.0
2.64,2540.5,1.0,1.0,1.0
2.69,2548,1.0,1.0,1.0
2.74,2338,1.0,1.0,1.0
2.79,2164.5,1.0,1.0,1.0
2.84,1992.5,1.0,1.0,1.0
2.89,1844.999,1.0,1.0,1.0
2.94,1586.5,1.0,1.0,1.0
2.99,1491.5,1.0,1.0,1.0
3.04,1288,1.0,1.0,1.0
3.09,1116.5,1.0,1.0,1.0
3.14,979.9996,1.0,1.0,1.0
3.19,869.0,1.0,1.0,1.0
3.24,737.4998,1.0,1.0,1.0
3.29,643.4998,1.0,1.0,1.0
3.34,644.5001,1.0,1.0,1.0
3.39,552.0,1.0,1.0,1.0
3.44,481.9999,1.0,1.0,1.0
3.49,506.5002,1.0,1.0,1.0
3.54,494.0002,1.0,1.0,1.0
3.59,552.5002,1.0,1.0,1.0
3.64,533.9996,1.0,1.0,1.0
3.69,571.4999,1.0,1.0,1.0
3.74,553.9999,1.0,1.0,1.0
3.79,621.9997,1.0,1.0,1.0
3.84,664.5001,1.0,1.0,1.0
3.89,669.4995,1.0,1.0,1.0
3.94,684.5002,1.0,1.0,1.0
3.99,668.0002,1.0,1.0,1.0
4.04,656.9999,1.0,1.0,1.0
4.09,668.4998,1.0,1.0,1.0
4.14,656.4998,1.0,1.0,1.0
4.19,688.4999,1.0,1.0,1.0
4.24,607.9998,1.0,1.0,1.0
4.29,612.5004,1.0,1.0,1.0
4.34,567.5006,1.0,1.0,1.0
4.39,561.4998,1.0,1.0,1.0
4.44,475.5002,1.0,1.0,1.0
4.49,528.4999,1.0,1.0,1.0
4.5,503.5002,1.0,1.0,1.0