File: XRD:XRR/SCO/22165_SL(CO)L/22165_SL(CO)L_002_XRD.csv
#twotheta, yobs, ycal, bkg, diff
42.0,5.0,1.0,1.0,1.0
42.03,9.0,1.0,1.0,1.0
42.06,9.0,1.0,1.0,1.0
42.09,7.0,1.0,1.0,1.0
42.12,7.0,1.0,1.0,1.0
42.15,4.0,1.0,1.0,1.0
42.18,11.0,1.0,1.0,1.0
42.21,7.0,1.0,1.0,1.0
42.24,9.0,1.0,1.0,1.0
42.27,8.4944,1.0,1.0,1.0
42.3,15.0111,1.0,1.0,1.0
42.33,8.0,1.0,1.0,1.0
42.36,8.5056,1.0,1.0,1.0
42.39,4.0,1.0,1.0,1.0
42.42,8.0,1.0,1.0,1.0
42.45,7.0,1.0,1.0,1.0
42.48,5.0,1.0,1.0,1.0
42.51,5.0,1.0,1.0,1.0
42.54,24.4944,1.0,1.0,1.0
42.57,4.0,1.0,1.0,1.0
42.6,12.5056,1.0,1.0,1.0
42.63,7.0,1.0,1.0,1.0
42.66,6.0,1.0,1.0,1.0
42.69,6.0,1.0,1.0,1.0
42.72,7.0,1.0,1.0,1.0
42.75,5.0,1.0,1.0,1.0
42.78,8.4944,1.0,1.0,1.0
42.81,6.0,1.0,1.0,1.0
42.84,13.4944,1.0,1.0,1.0
42.87,11.0,1.0,1.0,1.0
42.9,5.0,1.0,1.0,1.0
42.93,14.0,1.0,1.0,1.0
42.96,4.0,1.0,1.0,1.0
42.99,3.0,1.0,1.0,1.0
43.02,68.0,1.0,1.0,1.0
43.05,5.4944,1.0,1.0,1.0
43.08,13.0,1.0,1.0,1.0
43.11,115.0,1.0,1.0,1.0
43.14,21.4944,1.0,1.0,1.0
43.17,12.0,1.0,1.0,1.0
43.2,13.0,1.0,1.0,1.0
43.23,25.0,1.0,1.0,1.0
43.26,23.0,1.0,1.0,1.0
43.29,16.0,1.0,1.0,1.0
43.32,19.0,1.0,1.0,1.0
43.35,13.0,1.0,1.0,1.0
43.38,19.5056,1.0,1.0,1.0
43.41,10.0,1.0,1.0,1.0
43.44,11.4833,1.0,1.0,1.0
43.47,8.0,1.0,1.0,1.0
43.5,20.9889,1.0,1.0,1.0
43.53,14.5056,1.0,1.0,1.0
43.56,13.0,1.0,1.0,1.0
43.59,13.0,1.0,1.0,1.0
43.62,14.0,1.0,1.0,1.0
43.65,32.0,1.0,1.0,1.0
43.68,18.4944,1.0,1.0,1.0
43.71,28.5056,1.0,1.0,1.0
43.74,15.4944,1.0,1.0,1.0
43.77,32.5056,1.0,1.0,1.0
43.8,28.5056,1.0,1.0,1.0
43.83,44.4944,1.0,1.0,1.0
43.86,47.0,1.0,1.0,1.0
43.89,33.0,1.0,1.0,1.0
43.92,30.0,1.0,1.0,1.0
43.95,40.4944,1.0,1.0,1.0
43.98,46.5167,1.0,1.0,1.0
44.01,58.0111,1.0,1.0,1.0
44.04,42.0,1.0,1.0,1.0
44.07,68.4944,1.0,1.0,1.0
44.1,38.4833,1.0,1.0,1.0
44.13,55.5056,1.0,1.0,1.0
44.16,35.5056,1.0,1.0,1.0
44.19,55.4833,1.0,1.0,1.0
44.22,42.0111,1.0,1.0,1.0
44.25,84.9889,1.0,1.0,1.0
44.28,77.4944,1.0,1.0,1.0
44.31,104.5056,1.0,1.0,1.0
44.34,70.4944,1.0,1.0,1.0
44.37,78.4944,1.0,1.0,1.0
44.4,85.5056,1.0,1.0,1.0
44.43,76.5167,1.0,1.0,1.0
44.46,70.4944,1.0,1.0,1.0
44.49,105.5167,1.0,1.0,1.0
44.52,88.0,1.0,1.0,1.0
44.55,82.9889,1.0,1.0,1.0
44.58,112.5056,1.0,1.0,1.0
44.61,79.9889,1.0,1.0,1.0
44.64,84.0,1.0,1.0,1.0
44.67,65.0,1.0,1.0,1.0
44.7,65.9889,1.0,1.0,1.0
44.73,84.4833,1.0,1.0,1.0
44.76,83.4944,1.0,1.0,1.0
44.79,99.9889,1.0,1.0,1.0
44.82,107.0111,1.0,1.0,1.0
44.85,113.5056,1.0,1.0,1.0
44.88,171.4722,1.0,1.0,1.0
44.91,162.0111,1.0,1.0,1.0
44.94,162.0,1.0,1.0,1.0
44.97,222.0,1.0,1.0,1.0
45.0,254.9778,1.0,1.0,1.0
45.03,292.4833,1.0,1.0,1.0
45.06,357.5056,1.0,1.0,1.0
45.09,368.5167,1.0,1.0,1.0
45.12,378.0222,1.0,1.0,1.0
45.15,381.5167,1.0,1.0,1.0
45.18,469.0333,1.0,1.0,1.0
45.21,497.4722,1.0,1.0,1.0
45.24,444.5167,1.0,1.0,1.0
45.27,444.0222,1.0,1.0,1.0
45.3,402.5167,1.0,1.0,1.0
45.33,329.0444,1.0,1.0,1.0
45.36,273.9889,1.0,1.0,1.0
45.39,217.5056,1.0,1.0,1.0
45.42,228.9889,1.0,1.0,1.0
45.45,215.4833,1.0,1.0,1.0
45.48,242.4833,1.0,1.0,1.0
45.51,240.0222,1.0,1.0,1.0
45.54,265.5167,1.0,1.0,1.0
45.57,294.9889,1.0,1.0,1.0
45.6,290.0222,1.0,1.0,1.0
45.63,345.4722,1.0,1.0,1.0
45.66,366.0333,1.0,1.0,1.0
45.69,492.4833,1.0,1.0,1.0
45.72,573.4722,1.0,1.0,1.0
45.75,741.5722,1.0,1.0,1.0
45.78,848.9889,1.0,1.0,1.0
45.81,1005.99,1.0,1.0,1.0
45.84,1178.49,1.0,1.0,1.0
45.87,1381.49,1.0,1.0,1.0
45.9,1538.97,1.0,1.0,1.0
45.93,1804.49,1.0,1.0,1.0
45.96,1906.46,1.0,1.0,1.0
45.99,1998.43,1.0,1.0,1.0
46.02,2062.06,1.0,1.0,1.0
46.05,1777.99,1.0,1.0,1.0
46.08,1621.48,1.0,1.0,1.0
46.11,1264.1,1.0,1.0,1.0
46.14,1115.54,1.0,1.0,1.0
46.17,1005.52,1.0,1.0,1.0
46.2,879.4722,1.0,1.0,1.0
46.23,937.9778,1.0,1.0,1.0
46.26,922.0,1.0,1.0,1.0
46.29,970.4944,1.0,1.0,1.0
46.32,858.0444,1.0,1.0,1.0
46.35,793.4611,1.0,1.0,1.0
46.38,794.5167,1.0,1.0,1.0
46.41,810.5389,1.0,1.0,1.0
46.44,913.4611,1.0,1.0,1.0
46.47,1094.99,1.0,1.0,1.0
46.5,1379.51,1.0,1.0,1.0
46.53,1648.06,1.0,1.0,1.0
46.56,2113.45,1.0,1.0,1.0
46.59,2722.91,1.0,1.0,1.0
46.62,3297.59,1.0,1.0,1.0
46.65,4220.83,1.0,1.0,1.0
46.68,5053.55,1.0,1.0,1.0
46.71,5781.96,1.0,1.0,1.0
46.74,6310.43,1.0,1.0,1.0
46.77,6509.48,1.0,1.0,1.0
46.8,6341.561,1.0,1.0,1.0
46.83,5927.42,1.0,1.0,1.0
46.86,5398.57,1.0,1.0,1.0
46.89,4867.06,1.0,1.0,1.0
46.92,4581.0,1.0,1.0,1.0
46.95,4590.52,1.0,1.0,1.0
46.98,4590.439,1.0,1.0,1.0
47.01,4733.02,1.0,1.0,1.0
47.04,4740.0,1.0,1.0,1.0
47.07,4541.03,1.0,1.0,1.0
47.1,4250.06,1.0,1.0,1.0
47.13,3885.57,1.0,1.0,1.0
47.16,3472.48,1.0,1.0,1.0
47.19,2944.04,1.0,1.0,1.0
47.22,2653.09,1.0,1.0,1.0
47.25,2444.51,1.0,1.0,1.0
47.28,2254.11,1.0,1.0,1.0
47.31,2149.55,1.0,1.0,1.0
47.34,2153.46,1.0,1.0,1.0
47.37,2256.45,1.0,1.0,1.0
47.4,2492.42,1.0,1.0,1.0
47.43,3089.01,1.0,1.0,1.0
47.46,3485.09,1.0,1.0,1.0
47.49,3807.93,1.0,1.0,1.0
47.52,3859.61,1.0,1.0,1.0
47.55,3900.54,1.0,1.0,1.0
47.58,3079.0,1.0,1.0,1.0
47.61,2627.54,1.0,1.0,1.0
47.64,2139.51,1.0,1.0,1.0
47.67,1921.47,1.0,1.0,1.0
47.7,1957.48,1.0,1.0,1.0
47.73,2433.46,1.0,1.0,1.0
47.76,3228.94,1.0,1.0,1.0
47.79,4480.92,1.0,1.0,1.0
47.82,6928.43,1.0,1.0,1.0
47.85,12901.7,1.0,1.0,1.0
47.88,26174.2,1.0,1.0,1.0
47.91,57112,1.0,1.0,1.0
47.94,145814,1.0,1.0,1.0
47.97,847901.875,1.0,1.0,1.0
48.0,14926206.0,1.0,1.0,1.0
48.03,5315156.5,1.0,1.0,1.0
48.06,1071516.5,1.0,1.0,1.0
48.09,48948.6,1.0,1.0,1.0
48.12,16902.6,1.0,1.0,1.0
48.15,9988.0,1.0,1.0,1.0
48.18,7428.52,1.0,1.0,1.0
48.21,6131.91,1.0,1.0,1.0
48.24,5166.92,1.0,1.0,1.0
48.27,3733.06,1.0,1.0,1.0
48.3,2681.03,1.0,1.0,1.0
48.33,1883.04,1.0,1.0,1.0
48.36,1381.51,1.0,1.0,1.0
48.39,1043.97,1.0,1.0,1.0
48.42,920.9889,1.0,1.0,1.0
48.45,777.4611,1.0,1.0,1.0
48.48,695.0,1.0,1.0,1.0
48.51,560.9889,1.0,1.0,1.0
48.54,407.5278,1.0,1.0,1.0
48.57,381.0,1.0,1.0,1.0
48.6,284.5167,1.0,1.0,1.0
48.63,290.0111,1.0,1.0,1.0
48.66,273.5167,1.0,1.0,1.0
48.69,263.0222,1.0,1.0,1.0
48.72,223.0,1.0,1.0,1.0
48.75,240.0111,1.0,1.0,1.0
48.78,225.4944,1.0,1.0,1.0
48.81,207.0222,1.0,1.0,1.0
48.84,185.4944,1.0,1.0,1.0
48.87,144.9889,1.0,1.0,1.0
48.9,119.0,1.0,1.0,1.0
48.93,103.0111,1.0,1.0,1.0
48.96,62.5167,1.0,1.0,1.0
48.99,82.0111,1.0,1.0,1.0
49.02,84.5056,1.0,1.0,1.0
49.05,53.5056,1.0,1.0,1.0
49.08,46.9889,1.0,1.0,1.0
49.11,39.5056,1.0,1.0,1.0
49.14,34.0111,1.0,1.0,1.0
49.17,30.4944,1.0,1.0,1.0
49.2,42.5056,1.0,1.0,1.0
49.23,33.5056,1.0,1.0,1.0
49.26,25.0111,1.0,1.0,1.0
49.29,29.5056,1.0,1.0,1.0
49.32,21.0,1.0,1.0,1.0
49.35,52.5056,1.0,1.0,1.0
49.38,38.0,1.0,1.0,1.0
49.41,29.5056,1.0,1.0,1.0
49.44,22.9889,1.0,1.0,1.0
49.47,28.0111,1.0,1.0,1.0
49.5,52.9889,1.0,1.0,1.0
49.53,30.0,1.0,1.0,1.0
49.56,35.0,1.0,1.0,1.0
49.59,38.4944,1.0,1.0,1.0
49.62,32.5056,1.0,1.0,1.0
49.65,40.0111,1.0,1.0,1.0
49.68,28.5056,1.0,1.0,1.0
49.71,18.9889,1.0,1.0,1.0
49.74,33.0,1.0,1.0,1.0
49.77,12.0,1.0,1.0,1.0
49.8,4.4944,1.0,1.0,1.0
49.83,29.0,1.0,1.0,1.0
49.86,17.0,1.0,1.0,1.0
49.89,11.0,1.0,1.0,1.0
49.92,5.0,1.0,1.0,1.0
49.95,18.0,1.0,1.0,1.0
49.98,12.0,1.0,1.0,1.0
50.0,7.4944,1.0,1.0,1.0