File: XRD:XRR/SCO/22165_SL(CO)L/22165_SL(CO)L_XRD_001_2-Theta_Omega.asc
*TYPE		=  Raw
*CLASS		=  ASCII CLASS
*SAMPLE		=
*COMMENT	=
*FNAME		=  22165_SL(CO)L_XRD_001_2-Theta_Omega.asc
*DATE		=  10-Dec-22 21:33

*GROUP_COUNT	=  1
*GONIO		=  SmartLab(In-plane), 0.000000
*ATTACHMENT	=  Z-Phi Stage
*ASC		=  0, 0, 0.000000, 0.000000
*I_MONOCHRO	=  Ge(220)x2, 0.000000
*FILTER		=  None
*C_MONOCHRO	=  None, 0.000000
*SLIT_NAME	=  0, Incident slit
*SLIT_NAME	=  1, Receiving slit # 1
*SLIT_NAME	=  2, Receiving slit # 2
*COUNTER	=  D/teX Ultra 250, 0
*POS_FORMAT	=  0
*SCAN_AXIS	=  2Theta/Omega
*MEAS_MODE	=  Continuous Scanning
*TARGET		=  29
*XRAY_CHAR	=  K-ALPHA1
*WAVE_LENGTH1	=  1.54059
*WAVE_LENGTH2	=  1.54441
*THICKNESS	=  0, 0.000000
*MU		=  0, 0.000000
*SCAN_MODE	=  2Theta/Omega
*SPEED_DIM	=  sec./step
*XUNIT		=  deg.
*YUNIT		=  counts
*SCALE_MODE	=  1
*REP_COUNT	=  0
*SE_COUNT	=  0
*STD_MATERIAL	=  Unknown, Unknown, 0.000000, 0.000000, 0.000000, 0.000000, 0.000000, 0.000000
*LATT_CONS	=  0, Unknown, Unknown, 0.000000, 0.000000, 0.000000, 0.000000, 0.000000, 0.000000
*SEC_COUNT	=  1
*TSPEC_SIZE	=  0
*EXTRA_SIZE	=  0
*MEMO		=

*BEGIN
*GROUP		=  0
*START		=  16
*STOP		=  30
*STEP		=  0.01
*OFFSET		=  0.1653
*SPEED		=  23.9588
*SLIT_SPEC	=  0, 0.400mm, 0.4, 0.000000
*SLIT_SPEC	=  1, 0.400mm, 0.4, 0.000000
*SLIT_SPEC	=  2, 0.400mm, 0.4, 0.000000
*KV		=  40
*MA		=  30
*LOW		=  0.000000
*HIGH		=  0.000000
*CTEMPER	=  0, 0.000000
*CTEMPER	=  1, 0.000000
*CTEMPER	=  2, 0.000000
*PAREX		=  0, 0.000000
*PAREX		=  1, 0.000000
*PAREX		=  2, 0.000000
*PAREX		=  3, 0.000000
*PAREX		=  4, 0.000000
*PAREX		=  5, 0.000000
*PAREX		=  6, 0.000000
*PAREX		=  7, 0.000000
*PAREX		=  8, 0.000000
*PAREX		=  9, 0.000000
*PAREX		=  10, 0.000000
*PAREX		=  11, 0.000000
*PAREX		=  12, 0.000000
*PAREX		=  13, 0.000000
*PAREX		=  14, 0.000000
*PAREX		=  15, 0.000000
*FULL_SCALE	=  307383
*INDEX		=  0, 0, 0
*COUNT		=  1401
35, 45.4976, 40.5024, 39
29, 34.9984, 37.5008, 42
37.4992, 41.5008, 49, 33
33.5008, 46.4992, 27.4992, 44.0016
14.9984, 29.0016, 42.4992, 35
49.9984, 40.4992, 38.5024, 49
38.5008, 53, 45.9984, 43.0016
45, 28.0016, 32.4992, 34.4992
43.5024, 36.4992, 32.5008, 48
57, 51, 56.5008, 40.5008
33.5008, 51.4976, 52.5024, 32
50, 55.4992, 33.5008, 40
30.5008, 49, 35, 47
48.4992, 34.9984, 51.5024, 46
41.4992, 38.5008, 44, 44.4992
43, 44, 28.9984, 31.5008
28.4992, 56.5008, 48.4992, 33.5008
46.5008, 40.4992, 32.4992, 52.5008
46, 34, 57.5008, 49
40.5008, 49.4992, 48.5008, 43
31.5008, 31.4976, 68.0016, 46
49.0016, 34, 50, 48.4992
41, 38.9969, 52.0016, 64.0016
41.4992, 61.0016, 50.4992, 41.5008
49.4992, 38.5008, 62.4992, 35.0016
48.9984, 54.0031, 44, 43
31.5008, 48.0016, 51, 55.9984
37, 50.4992, 39, 56.5008
30.4992, 48.5008, 41.4992, 48
46, 40.5008, 35.4992, 55.4992
48.4992, 46, 52, 23.5008
39, 37, 39, 55.4992
50, 42, 44, 44.5008
37, 37, 39, 37.4992
44, 58.4992, 38, 35.5008
58.5008, 45.4976, 38.0016, 41
44.4992, 39.4992, 34.0016, 30.4992
42.4992, 36.4992, 44.0016, 70
42.4976, 54.4992, 69.5024, 37
43, 50, 47.4992, 65.5008
65, 41.5008, 57.9984, 51
80.5024, 46, 64, 60.4992
49.5008, 53, 53, 44.9984
56.5008, 43.5008, 42.5008, 55.4992
48.9984, 51.5024, 47, 55.9984
44.5008, 47, 50, 25.4992
33.0016, 56.4976, 42.5008, 33.0016
45.4992, 47.9984, 67, 51.5024
47.5008, 40, 56.9984, 57.5008
77, 72.5008, 89.4992, 59.4992
97.0016, 66, 64.9969, 77.0016
58.0016, 42.5008, 44.4992, 76.9984
51.5039, 40.9984, 66.0016, 64.9984
61.9953, 74.0047, 41, 70
36.4976, 74.0031, 40.4992, 43.5008
54, 59, 42, 58.5008
70.9969, 52.0031, 44, 44.4992
56, 52.0016, 50, 61.5008
74.9984, 63.5024, 80.4992, 83.4992
80, 67.5008, 67.9969, 72.5024
42.0016, 51, 81.4976, 42.5008
47, 79.9984, 60.0016, 48.4992
59.5008, 41, 46, 45.4992
55.4992, 46.0016, 34.9984, 35.5008
57, 63, 78, 67.9984
122, 145.498, 163.504, 152.498
215.498, 216.003, 261.499, 261.997
180.002, 187.499, 188, 177.998
129.997, 105.504, 140.498, 165.498
199.502, 233, 221, 227.498
226.002, 220.499, 178.003, 193.501
174.501, 143.002, 136.501, 175
156.498, 127.502, 160.499, 158.498
198.501, 206.499, 248, 275.003
510.003, 521.003, 606.998, 625.997
728.501, 696, 626.005, 614.002
413.002, 334.998, 340.002, 313.499
458.002, 435.997, 512.003, 575.995
623.997, 717.005, 708.002, 654.002
628.002, 655.502, 596.499, 577.495
789.501, 881.994, 870.505, 883
878.005, 760, 680.502, 579.997
448.498, 400.498, 451.006, 504.994
895.997, 954.003, 1047, 1066.5
958.504, 1029, 881.507, 813.498
759.499, 703.003, 807.496, 911.502
1582.5, 1582.49, 1747.01, 1799.49
2255, 2282, 2277.5, 2403.5
3206.98, 3528.5, 3809.49, 4150.5
5716.49, 5983.02, 6158.99, 6057.98
4836.51, 4382.03, 3958.49, 3575.5
3000.99, 3541.5, 4274.48, 5373.98
19482.4, 27346.8, 46227.4, 172496
2217138.3, 3155992, 4690127, 5962155.5
79716.1, 49952.8, 31567.7, 20747.1
5128.02, 4148, 3387.51, 3023.51
1455.01, 1311.5, 1123.01, 966.002
487.997, 461.502, 407.499, 397.501
480.499, 489.998, 525.005, 498.995
416.502, 400.499, 339.998, 336.502
202.504, 208.496, 191.504, 183.502
129.501, 113, 119.998, 103.501
121.002, 95, 81.4992, 100.002
54.5024, 63, 78.4992, 71
59.9984, 55.0016, 76.4992, 57
51, 38, 40, 58
59, 90.4992, 81.5008, 68
78, 52.4992, 69.0016, 73.9984
61.0016, 62.9984, 44.5008, 42.5008
48, 50, 53.4992, 52.4992
25, 38.4992, 42, 32.5008
54.9984, 52.5008, 36, 37
34.4992, 28.5008, 41.9984, 44
24.0016, 52, 47.4992, 41.5008
44, 59, 39.0016, 54
40.5008, 48, 34, 14
35.0016, 30, 24, 22
25, 20.4992, 26.5008, 18
24.4992, 31.5008, 20, 24
23, 23, 23, 17.4992
20, 34.9984, 25.0016, 31
30, 38, 27, 16.4992
22, 47, 39, 31.4992
29.9984, 37.0016, 28, 17.4992
28.5008, 22.4992, 30.5008, 20.4992
16.5008, 14.5008, 11.9984, 29.0016
17, 18, 25.4992, 26
23, 20.9984, 30.0016, 17
12.9984, 26.0016, 21, 17
33.5008, 22, 23.9984, 15.5008
18, 14, 6, 24
17.4992, 22, 27, 20.5008
15.5008, 12, 19, 4.49921
20, 16, 15.9984, 20
11, 15, 18.4992, 25.5008
15.5008, 18, 16, 22.4992
25.5008, 13.4992, 21, 19.5008
20.4992, 20.5008, 22.4992, 20.5008
15, 18, 16, 18
16.4992, 27.5008, 17.4992, 5
15.5008, 18, 11, 20
21, 12.9984, 21.0016, 29.4992
16, 18, 28, 12
16, 23, 17, 21
21.0016, 11.4992, 19.5008, 17.4992
25.5008, 28.4992, 18.5008, 18
24.5008, 18.4992, 13.4992, 13.0016
16.9984, 17.5008, 24.5008, 31
15.4992, 11.5008, 13, 24.9984
27.5008, 16, 9, 15
19.4992, 25.0016, 17.4992, 16
24.5008, 13, 16, 11
7, 18, 19, 15
25, 14.5008, 16.4992, 17.5008
24, 16, 11, 6
17.5008, 14.5008, 16, 20
14, 7.49921, 18.5008, 12
4, 23, 6, 15
9.50079, 12, 16, 11
17, 4, 7, 14
5, 20, 19, 19.4992
29, 18, 23.4992, 12.5008
5, 19, 18, 8
13, 13, 13.4992, 14
12.4976, 18.5024, 23, 25
22.5008, 25, 14.4992, 11.5008
14.5008, 29, 15, 25.9984
18, 25, 17, 25
20.5008, 9, 10, 11
3.50079, 6, 12, 6
13.4992, 12.5008, 12, 9
15, 7.49921, 18.5008, 17
12, 23, 20, 6
6, 10.9984, 9.00157, 11
19, 9, 15, 17
7
*END

*EOF