File: XRD:XRR/SCO/22165_SL(CO)L/22165_SL(CO)L_XRD_001.csv
#twotheta, yobs, ycal, bkg, diff
16.0,35.0,1.0,1.0,1.0
16.05,38.0,1.0,1.0,1.0
16.1,37.5008,1.0,1.0,1.0
16.15,45.5008,1.0,1.0,1.0
16.2,31.4992,1.0,1.0,1.0
16.25,46.4992,1.0,1.0,1.0
16.3,50.0,1.0,1.0,1.0
16.35,35.0,1.0,1.0,1.0
16.4,49.9984,1.0,1.0,1.0
16.45,41.4992,1.0,1.0,1.0
16.5,45.9984,1.0,1.0,1.0
16.55,36.9984,1.0,1.0,1.0
16.6,46.0,1.0,1.0,1.0
16.65,36.4992,1.0,1.0,1.0
16.7,47.9969,1.0,1.0,1.0
16.75,40.5008,1.0,1.0,1.0
16.8,33.5008,1.0,1.0,1.0
16.85,40.5008,1.0,1.0,1.0
16.9,33.5008,1.0,1.0,1.0
16.95,55.5008,1.0,1.0,1.0
17.0,33.9984,1.0,1.0,1.0
17.05,34.9984,1.0,1.0,1.0
17.1,47.0016,1.0,1.0,1.0
17.15,44.4992,1.0,1.0,1.0
17.2,43.0,1.0,1.0,1.0
17.25,35.0016,1.0,1.0,1.0
17.3,48.4992,1.0,1.0,1.0
17.35,45.0,1.0,1.0,1.0
17.4,62.4992,1.0,1.0,1.0
17.45,34.0,1.0,1.0,1.0
17.5,53.0,1.0,1.0,1.0
17.55,43.0,1.0,1.0,1.0
17.6,31.5008,1.0,1.0,1.0
17.65,46.0,1.0,1.0,1.0
17.7,50.0,1.0,1.0,1.0
17.75,66.5008,1.0,1.0,1.0
17.8,52.4992,1.0,1.0,1.0
17.85,61.0016,1.0,1.0,1.0
17.9,70.9984,1.0,1.0,1.0
17.95,35.0016,1.0,1.0,1.0
18.0,48.9984,1.0,1.0,1.0
18.05,53.4992,1.0,1.0,1.0
18.1,51.0,1.0,1.0,1.0
18.15,32.0016,1.0,1.0,1.0
18.2,45.0,1.0,1.0,1.0
18.25,48.5008,1.0,1.0,1.0
18.3,54.0,1.0,1.0,1.0
18.35,55.4992,1.0,1.0,1.0
18.4,48.4992,1.0,1.0,1.0
18.45,53.0,1.0,1.0,1.0
18.5,39.0,1.0,1.0,1.0
18.55,44.4992,1.0,1.0,1.0
18.6,51.0,1.0,1.0,1.0
18.65,37.0,1.0,1.0,1.0
18.7,59.5008,1.0,1.0,1.0
18.75,35.5008,1.0,1.0,1.0
18.8,58.5008,1.0,1.0,1.0
18.85,31.0,1.0,1.0,1.0
18.9,34.0016,1.0,1.0,1.0
18.95,26.0,1.0,1.0,1.0
19.0,64.4992,1.0,1.0,1.0
19.05,54.4992,1.0,1.0,1.0
19.1,58.5024,1.0,1.0,1.0
19.15,65.5008,1.0,1.0,1.0
19.2,65.0,1.0,1.0,1.0
19.25,46.5008,1.0,1.0,1.0
19.3,64.0,1.0,1.0,1.0
19.35,53.0,1.0,1.0,1.0
19.4,48.0016,1.0,1.0,1.0
19.45,43.5008,1.0,1.0,1.0
19.5,54.5008,1.0,1.0,1.0
19.55,55.9984,1.0,1.0,1.0
19.6,44.5008,1.0,1.0,1.0
19.65,30.0,1.0,1.0,1.0
19.7,42.5008,1.0,1.0,1.0
19.75,40.5008,1.0,1.0,1.0
19.8,52.0,1.0,1.0,1.0
19.85,40.0,1.0,1.0,1.0
19.9,87.9984,1.0,1.0,1.0
19.95,59.4992,1.0,1.0,1.0
20.0,97.0016,1.0,1.0,1.0
20.05,64.0,1.0,1.0,1.0
20.1,44.4992,1.0,1.0,1.0
20.15,60.4961,1.0,1.0,1.0
20.2,64.5008,1.0,1.0,1.0
20.25,74.0047,1.0,1.0,1.0
20.3,58.0,1.0,1.0,1.0
20.35,43.5008,1.0,1.0,1.0
20.4,54.0,1.0,1.0,1.0
20.45,66.4976,1.0,1.0,1.0
20.5,44.0,1.0,1.0,1.0
20.55,44.4992,1.0,1.0,1.0
20.6,47.0,1.0,1.0,1.0
20.65,63.5024,1.0,1.0,1.0
20.7,83.4945,1.0,1.0,1.0
20.75,72.5024,1.0,1.0,1.0
20.8,42.0016,1.0,1.0,1.0
20.85,54.5008,1.0,1.0,1.0
20.9,60.0016,1.0,1.0,1.0
20.95,57.4992,1.0,1.0,1.0
21.0,41.4992,1.0,1.0,1.0
21.05,46.0016,1.0,1.0,1.0
21.1,63.9984,1.0,1.0,1.0
21.15,67.9984,1.0,1.0,1.0
21.2,122.0,1.0,1.0,1.0
21.25,231.0031,1.0,1.0,1.0
21.3,261.4992,1.0,1.0,1.0
21.35,161.5008,1.0,1.0,1.0
21.4,178.0016,1.0,1.0,1.0
21.45,105.5039,1.0,1.0,1.0
21.5,204.4992,1.0,1.0,1.0
21.55,227.4976,1.0,1.0,1.0
21.6,226.0016,1.0,1.0,1.0
21.65,151.0063,1.0,1.0,1.0
21.7,136.5008,1.0,1.0,1.0
21.75,159.5024,1.0,1.0,1.0
21.8,172.4992,1.0,1.0,1.0
21.85,206.4992,1.0,1.0,1.0
21.9,411.0,1.0,1.0,1.0
21.95,625.9968,1.0,1.0,1.0
22.0,728.5008,1.0,1.0,1.0
22.05,499.5008,1.0,1.0,1.0
22.1,340.0016,1.0,1.0,1.0
22.15,363.4992,1.0,1.0,1.0
22.2,585.5039,1.0,1.0,1.0
22.25,717.0047,1.0,1.0,1.0
22.3,679.4992,1.0,1.0,1.0
22.35,577.4945,1.0,1.0,1.0
22.4,789.5008,1.0,1.0,1.0
22.45,937.5024,1.0,1.0,1.0
22.5,680.5024,1.0,1.0,1.0
22.55,434.0016,1.0,1.0,1.0
22.6,554.9968,1.0,1.0,1.0
22.65,954.0032,1.0,1.0,1.0
22.7,1056,1.0,1.0,1.0
22.75,813.4976,1.0,1.0,1.0
22.8,759.4992,1.0,1.0,1.0
22.85,1149,1.0,1.0,1.0
22.9,1747.01,1.0,1.0,1.0
22.95,2120,1.0,1.0,1.0
23.0,2560.49,1.0,1.0,1.0
23.05,3528.5,1.0,1.0,1.0
23.1,5222.499,1.0,1.0,1.0
23.15,6057.981,1.0,1.0,1.0
23.2,4836.51,1.0,1.0,1.0
23.25,2931.49,1.0,1.0,1.0
23.3,4274.48,1.0,1.0,1.0
23.35,14373.4,1.0,1.0,1.0
23.4,566327.5,1.0,1.0,1.0
23.45,3155992.0,1.0,1.0,1.0
23.5,291133,1.0,1.0,1.0
23.55,20747.1,1.0,1.0,1.0
23.6,5128.022,1.0,1.0,1.0
23.65,2235,1.0,1.0,1.0
23.7,1123.01,1.0,1.0,1.0
23.75,516.0016,1.0,1.0,1.0
23.8,460.0016,1.0,1.0,1.0
23.85,489.9984,1.0,1.0,1.0
23.9,472.0,1.0,1.0,1.0
23.95,336.5023,1.0,1.0,1.0
24.0,202.5039,1.0,1.0,1.0
24.05,136.0016,1.0,1.0,1.0
24.1,119.9984,1.0,1.0,1.0
24.15,119.0,1.0,1.0,1.0
24.2,92.4992,1.0,1.0,1.0
24.25,63.0,1.0,1.0,1.0
24.3,46.4992,1.0,1.0,1.0
24.35,57.0,1.0,1.0,1.0
24.4,51.0,1.0,1.0,1.0
24.45,53.4992,1.0,1.0,1.0
24.5,81.5008,1.0,1.0,1.0
24.55,69.0016,1.0,1.0,1.0
24.6,77.0,1.0,1.0,1.0
24.65,62.9984,1.0,1.0,1.0
24.7,45.5008,1.0,1.0,1.0
24.75,52.4992,1.0,1.0,1.0
24.8,25.0,1.0,1.0,1.0
24.85,41.0,1.0,1.0,1.0
24.9,36.0,1.0,1.0,1.0
24.95,45.5008,1.0,1.0,1.0
25.0,50.0,1.0,1.0,1.0
25.05,52.0,1.0,1.0,1.0
25.1,46.0,1.0,1.0,1.0
25.15,54.0,1.0,1.0,1.0
25.2,40.5008,1.0,1.0,1.0
25.25,43.4992,1.0,1.0,1.0
25.3,24.0,1.0,1.0,1.0
25.35,20.0,1.0,1.0,1.0
25.4,25.9984,1.0,1.0,1.0
25.45,31.5008,1.0,1.0,1.0
25.5,10.0,1.0,1.0,1.0
25.55,17.4992,1.0,1.0,1.0
25.6,20.0,1.0,1.0,1.0
25.65,27.5008,1.0,1.0,1.0
25.7,27.0,1.0,1.0,1.0
25.75,53.5008,1.0,1.0,1.0
25.8,23.5008,1.0,1.0,1.0
25.85,37.0016,1.0,1.0,1.0
25.9,22.4992,1.0,1.0,1.0
25.95,20.4992,1.0,1.0,1.0
26.0,16.5008,1.0,1.0,1.0
26.05,28.5008,1.0,1.0,1.0
26.1,25.4992,1.0,1.0,1.0
26.15,37.0,1.0,1.0,1.0
26.2,19.0,1.0,1.0,1.0
26.25,26.0016,1.0,1.0,1.0
26.3,10.4992,1.0,1.0,1.0
26.35,15.5008,1.0,1.0,1.0
26.4,18.0,1.0,1.0,1.0
26.45,13.0,1.0,1.0,1.0
26.5,27.0,1.0,1.0,1.0
26.55,23.4992,1.0,1.0,1.0
26.6,20.4992,1.0,1.0,1.0
26.65,16.0,1.0,1.0,1.0
26.7,18.0,1.0,1.0,1.0
26.75,25.5008,1.0,1.0,1.0
26.8,15.5008,1.0,1.0,1.0
26.85,22.5008,1.0,1.0,1.0
26.9,21.0,1.0,1.0,1.0
26.95,13.0,1.0,1.0,1.0
27.0,20.9984,1.0,1.0,1.0
27.05,18.0,1.0,1.0,1.0
27.1,22.4992,1.0,1.0,1.0
27.15,5.0,1.0,1.0,1.0
27.2,15.5008,1.0,1.0,1.0
27.25,28.0,1.0,1.0,1.0
27.3,21.0016,1.0,1.0,1.0
27.35,17.5008,1.0,1.0,1.0
27.4,11.0,1.0,1.0,1.0
27.45,23.0,1.0,1.0,1.0
27.5,23.0,1.0,1.0,1.0
27.55,17.4992,1.0,1.0,1.0
27.6,25.5008,1.0,1.0,1.0
27.65,18.0,1.0,1.0,1.0
27.7,13.4992,1.0,1.0,1.0
27.75,3.5008,1.0,1.0,1.0
27.8,20.0,1.0,1.0,1.0
27.85,11.5008,1.0,1.0,1.0
27.9,24.9984,1.0,1.0,1.0
27.95,15.0,1.0,1.0,1.0
28.0,19.4992,1.0,1.0,1.0
28.05,24.0,1.0,1.0,1.0
28.1,16.0,1.0,1.0,1.0
28.15,23.0,1.0,1.0,1.0
28.2,9.4992,1.0,1.0,1.0
28.25,14.5008,1.0,1.0,1.0
28.3,8.0,1.0,1.0,1.0
28.35,6.0,1.0,1.0,1.0
28.4,17.5008,1.0,1.0,1.0
28.45,23.0,1.0,1.0,1.0
28.5,18.5008,1.0,1.0,1.0
28.55,23.0,1.0,1.0,1.0
28.6,13.4992,1.0,1.0,1.0
28.65,12.0,1.0,1.0,1.0
28.7,19.0,1.0,1.0,1.0
28.75,14.0,1.0,1.0,1.0
28.8,5.0,1.0,1.0,1.0
28.85,27.0016,1.0,1.0,1.0
28.9,23.4992,1.0,1.0,1.0
28.95,10.0,1.0,1.0,1.0
29.0,17.0,1.0,1.0,1.0
29.05,13.0,1.0,1.0,1.0
29.1,11.0,1.0,1.0,1.0
29.15,25.0,1.0,1.0,1.0
29.2,22.5008,1.0,1.0,1.0
29.25,16.5008,1.0,1.0,1.0
29.3,15.0,1.0,1.0,1.0
29.35,16.5008,1.0,1.0,1.0
29.4,9.0,1.0,1.0,1.0
29.45,9.0,1.0,1.0,1.0
29.5,15.0,1.0,1.0,1.0
29.55,6.0,1.0,1.0,1.0
29.6,13.4992,1.0,1.0,1.0
29.65,15.0,1.0,1.0,1.0
29.7,18.5008,1.0,1.0,1.0
29.75,10.5008,1.0,1.0,1.0
29.8,14.0,1.0,1.0,1.0
29.85,10.9984,1.0,1.0,1.0
29.9,6.0,1.0,1.0,1.0
29.95,17.0,1.0,1.0,1.0
30.0,7.0,1.0,1.0,1.0