File: XRD:XRR/LCO/22136_LCOT/22136_LCOT_XRD_002.csv
#twotheta, yobs, ycal, bkg, diff
42.0,9.0,1.0,1.0,1.0
42.04,5.0,1.0,1.0,1.0
42.08,4.0,1.0,1.0,1.0
42.12,9.0,1.0,1.0,1.0
42.16,9.0,1.0,1.0,1.0
42.2,9.0,1.0,1.0,1.0
42.24,19.4944,1.0,1.0,1.0
42.28,9.0,1.0,1.0,1.0
42.32,6.0,1.0,1.0,1.0
42.36,5.0,1.0,1.0,1.0
42.4,15.0,1.0,1.0,1.0
42.44,13.5056,1.0,1.0,1.0
42.48,14.0,1.0,1.0,1.0
42.52,10.0,1.0,1.0,1.0
42.56,13.4944,1.0,1.0,1.0
42.6,2.0,1.0,1.0,1.0
42.64,9.0,1.0,1.0,1.0
42.68,12.0,1.0,1.0,1.0
42.72,10.0,1.0,1.0,1.0
42.76,6.9889,1.0,1.0,1.0
42.8,16.0,1.0,1.0,1.0
42.84,8.0,1.0,1.0,1.0
42.88,6.0,1.0,1.0,1.0
42.92,9.4944,1.0,1.0,1.0
42.96,8.4944,1.0,1.0,1.0
43.0,23.0,1.0,1.0,1.0
43.04,10.0,1.0,1.0,1.0
43.08,7.0,1.0,1.0,1.0
43.12,17.0,1.0,1.0,1.0
43.16,16.0,1.0,1.0,1.0
43.2,16.4944,1.0,1.0,1.0
43.24,19.0,1.0,1.0,1.0
43.28,9.9889,1.0,1.0,1.0
43.32,9.0,1.0,1.0,1.0
43.36,6.0,1.0,1.0,1.0
43.4,21.0,1.0,1.0,1.0
43.44,11.5056,1.0,1.0,1.0
43.48,9.0,1.0,1.0,1.0
43.52,14.0,1.0,1.0,1.0
43.56,22.0,1.0,1.0,1.0
43.6,12.4944,1.0,1.0,1.0
43.64,17.0,1.0,1.0,1.0
43.68,14.5056,1.0,1.0,1.0
43.72,11.0,1.0,1.0,1.0
43.76,31.0,1.0,1.0,1.0
43.8,14.4944,1.0,1.0,1.0
43.84,11.5056,1.0,1.0,1.0
43.88,9.4944,1.0,1.0,1.0
43.92,12.5056,1.0,1.0,1.0
43.96,17.0,1.0,1.0,1.0
44.0,14.0,1.0,1.0,1.0
44.04,11.0,1.0,1.0,1.0
44.08,17.4944,1.0,1.0,1.0
44.12,29.0111,1.0,1.0,1.0
44.16,18.4944,1.0,1.0,1.0
44.2,12.0,1.0,1.0,1.0
44.24,18.0,1.0,1.0,1.0
44.28,17.0,1.0,1.0,1.0
44.32,9.0,1.0,1.0,1.0
44.36,36.0,1.0,1.0,1.0
44.4,23.0111,1.0,1.0,1.0
44.44,22.5056,1.0,1.0,1.0
44.48,18.0,1.0,1.0,1.0
44.52,18.5056,1.0,1.0,1.0
44.56,34.5056,1.0,1.0,1.0
44.6,30.0,1.0,1.0,1.0
44.64,28.0,1.0,1.0,1.0
44.68,15.0111,1.0,1.0,1.0
44.72,21.0,1.0,1.0,1.0
44.76,36.5056,1.0,1.0,1.0
44.8,30.5056,1.0,1.0,1.0
44.84,20.0,1.0,1.0,1.0
44.88,51.5056,1.0,1.0,1.0
44.92,23.0111,1.0,1.0,1.0
44.96,38.0,1.0,1.0,1.0
45.0,37.5056,1.0,1.0,1.0
45.04,41.4944,1.0,1.0,1.0
45.08,45.5056,1.0,1.0,1.0
45.12,44.5056,1.0,1.0,1.0
45.16,49.9889,1.0,1.0,1.0
45.2,55.0,1.0,1.0,1.0
45.24,51.0,1.0,1.0,1.0
45.28,55.5056,1.0,1.0,1.0
45.32,59.4944,1.0,1.0,1.0
45.36,78.0,1.0,1.0,1.0
45.4,73.5167,1.0,1.0,1.0
45.44,63.0111,1.0,1.0,1.0
45.48,85.0222,1.0,1.0,1.0
45.52,59.5056,1.0,1.0,1.0
45.56,97.5167,1.0,1.0,1.0
45.6,146.0,1.0,1.0,1.0
45.64,106.5056,1.0,1.0,1.0
45.68,148.5278,1.0,1.0,1.0
45.72,199.0111,1.0,1.0,1.0
45.76,184.5056,1.0,1.0,1.0
45.8,225.0111,1.0,1.0,1.0
45.84,268.4833,1.0,1.0,1.0
45.88,226.4722,1.0,1.0,1.0
45.92,259.9889,1.0,1.0,1.0
45.96,440.0222,1.0,1.0,1.0
46.0,290.9778,1.0,1.0,1.0
46.04,442.4722,1.0,1.0,1.0
46.08,645.9778,1.0,1.0,1.0
46.12,628.0,1.0,1.0,1.0
46.16,834.9667,1.0,1.0,1.0
46.2,1210.93,1.0,1.0,1.0
46.24,1295.99,1.0,1.0,1.0
46.28,1849.93,1.0,1.0,1.0
46.32,3369.98,1.0,1.0,1.0
46.36,6075.1,1.0,1.0,1.0
46.4,30416.8,1.0,1.0,1.0
46.44,709998.625,1.0,1.0,1.0
46.48,2429439.0,1.0,1.0,1.0
46.52,26639316.0,1.0,1.0,1.0
46.56,378780.25,1.0,1.0,1.0
46.6,203167,1.0,1.0,1.0
46.64,211282,1.0,1.0,1.0
46.68,183923,1.0,1.0,1.0
46.72,111544,1.0,1.0,1.0
46.76,45749.7,1.0,1.0,1.0
46.8,15552.8,1.0,1.0,1.0
46.84,8269.583,1.0,1.0,1.0
46.88,5131.65,1.0,1.0,1.0
46.92,3181.58,1.0,1.0,1.0
46.96,2613.46,1.0,1.0,1.0
47.0,2067.07,1.0,1.0,1.0
47.04,1473.54,1.0,1.0,1.0
47.08,1255.99,1.0,1.0,1.0
47.12,1043.55,1.0,1.0,1.0
47.16,896.9778,1.0,1.0,1.0
47.2,746.4611,1.0,1.0,1.0
47.24,699.0333,1.0,1.0,1.0
47.28,539.9333,1.0,1.0,1.0
47.32,512.0222,1.0,1.0,1.0
47.36,460.0222,1.0,1.0,1.0
47.4,404.0111,1.0,1.0,1.0
47.44,390.9778,1.0,1.0,1.0
47.48,378.0222,1.0,1.0,1.0
47.52,325.5056,1.0,1.0,1.0
47.56,261.4611,1.0,1.0,1.0
47.6,244.5056,1.0,1.0,1.0
47.64,220.0222,1.0,1.0,1.0
47.68,231.0,1.0,1.0,1.0
47.72,183.0111,1.0,1.0,1.0
47.76,147.0111,1.0,1.0,1.0
47.8,141.0,1.0,1.0,1.0
47.84,122.5167,1.0,1.0,1.0
47.88,119.5167,1.0,1.0,1.0
47.92,93.4833,1.0,1.0,1.0
47.96,90.4944,1.0,1.0,1.0
48.0,78.0111,1.0,1.0,1.0
48.04,77.4944,1.0,1.0,1.0
48.08,65.0,1.0,1.0,1.0
48.12,58.9889,1.0,1.0,1.0
48.16,67.0,1.0,1.0,1.0
48.2,52.5056,1.0,1.0,1.0
48.24,47.4944,1.0,1.0,1.0
48.28,34.9889,1.0,1.0,1.0
48.32,43.0111,1.0,1.0,1.0
48.36,41.0,1.0,1.0,1.0
48.4,36.0,1.0,1.0,1.0
48.44,36.0222,1.0,1.0,1.0
48.48,29.0,1.0,1.0,1.0
48.52,19.0,1.0,1.0,1.0
48.56,31.9889,1.0,1.0,1.0
48.6,30.9889,1.0,1.0,1.0
48.64,18.0,1.0,1.0,1.0
48.68,22.5056,1.0,1.0,1.0
48.72,23.0,1.0,1.0,1.0
48.76,25.0,1.0,1.0,1.0
48.8,24.9889,1.0,1.0,1.0
48.84,26.5056,1.0,1.0,1.0
48.88,16.0,1.0,1.0,1.0
48.92,13.4944,1.0,1.0,1.0
48.96,12.0,1.0,1.0,1.0
49.0,20.9889,1.0,1.0,1.0
49.04,22.0,1.0,1.0,1.0
49.08,12.0,1.0,1.0,1.0
49.12,16.0,1.0,1.0,1.0
49.16,6.4944,1.0,1.0,1.0
49.2,15.4944,1.0,1.0,1.0
49.24,10.0,1.0,1.0,1.0
49.28,18.0111,1.0,1.0,1.0
49.32,9.0,1.0,1.0,1.0
49.36,9.0,1.0,1.0,1.0
49.4,15.0,1.0,1.0,1.0
49.44,17.5056,1.0,1.0,1.0
49.48,19.0,1.0,1.0,1.0
49.52,14.0,1.0,1.0,1.0
49.56,13.5056,1.0,1.0,1.0
49.6,8.0,1.0,1.0,1.0
49.64,10.0,1.0,1.0,1.0
49.68,9.0,1.0,1.0,1.0
49.72,4.0,1.0,1.0,1.0
49.76,14.0,1.0,1.0,1.0
49.8,14.0,1.0,1.0,1.0
49.84,12.0,1.0,1.0,1.0
49.88,12.0,1.0,1.0,1.0
49.92,14.5056,1.0,1.0,1.0
49.96,6.4944,1.0,1.0,1.0
50.0,6.0,1.0,1.0,1.0
50.04,8.0,1.0,1.0,1.0
50.08,2.5056,1.0,1.0,1.0
50.12,16.5056,1.0,1.0,1.0
50.16,16.4944,1.0,1.0,1.0
50.2,3.0,1.0,1.0,1.0
50.24,14.0,1.0,1.0,1.0
50.28,15.0,1.0,1.0,1.0
50.32,13.0,1.0,1.0,1.0
50.36,10.0,1.0,1.0,1.0
50.4,9.0,1.0,1.0,1.0
50.44,4.0111,1.0,1.0,1.0
50.48,18.0111,1.0,1.0,1.0
50.52,10.0,1.0,1.0,1.0
50.56,6.4944,1.0,1.0,1.0
50.6,4.0,1.0,1.0,1.0
50.64,11.0,1.0,1.0,1.0
50.68,5.0,1.0,1.0,1.0
50.72,5.0,1.0,1.0,1.0
50.76,3.0,1.0,1.0,1.0
50.8,2.0,1.0,1.0,1.0
50.84,11.0,1.0,1.0,1.0
50.88,3.5056,1.0,1.0,1.0
50.92,7.0,1.0,1.0,1.0
50.96,12.0,1.0,1.0,1.0
51.0,6.0,1.0,1.0,1.0
51.04,5.0,1.0,1.0,1.0
51.08,6.0,1.0,1.0,1.0
51.12,8.0,1.0,1.0,1.0
51.16,7.5056,1.0,1.0,1.0
51.2,3.0,1.0,1.0,1.0
51.24,2.0,1.0,1.0,1.0
51.28,5.0,1.0,1.0,1.0
51.32,6.0,1.0,1.0,1.0
51.36,4.4944,1.0,1.0,1.0
51.4,7.0,1.0,1.0,1.0
51.44,12.0,1.0,1.0,1.0
51.48,10.0,1.0,1.0,1.0
51.52,14.0111,1.0,1.0,1.0
51.56,0.5056,1.0,1.0,1.0
51.6,4.9889,1.0,1.0,1.0
51.64,4.5056,1.0,1.0,1.0
51.68,9.0,1.0,1.0,1.0
51.72,10.5056,1.0,1.0,1.0
51.76,6.0,1.0,1.0,1.0
51.8,3.0,1.0,1.0,1.0
51.84,8.0,1.0,1.0,1.0
51.88,8.0,1.0,1.0,1.0
51.92,9.5056,1.0,1.0,1.0
51.96,0.0,1.0,1.0,1.0
52.0,7.0,1.0,1.0,1.0