File: XRD:XRR/SCO/22135_SCOT/22135_SCOT_XRD_002_2-Theta_Omega.asc
*TYPE		=  Raw
*CLASS		=  ASCII CLASS
*SAMPLE		=
*COMMENT	=
*FNAME		=  22135_SCOT_XRD_002_2-Theta_Omega.asc
*DATE		=  08-Sep-22 17:04

*GROUP_COUNT	=  1
*GONIO		=  SmartLab(In-plane), 0.000000
*ATTACHMENT	=  Z-Phi Stage
*ASC		=  0, 0, 0.000000, 0.000000
*I_MONOCHRO	=  Ge(220)x2, 0.000000
*FILTER		=  None
*C_MONOCHRO	=  None, 0.000000
*SLIT_NAME	=  0, Incident slit
*SLIT_NAME	=  1, Receiving slit # 1
*SLIT_NAME	=  2, Receiving slit # 2
*COUNTER	=  D/teX Ultra 250, 0
*POS_FORMAT	=  0
*SCAN_AXIS	=  2Theta/Omega
*MEAS_MODE	=  Continuous Scanning
*TARGET		=  29
*XRAY_CHAR	=  K-ALPHA1
*WAVE_LENGTH1	=  1.54059
*WAVE_LENGTH2	=  1.54441
*THICKNESS	=  0, 0.000000
*MU		=  0, 0.000000
*SCAN_MODE	=  2Theta/Omega
*SPEED_DIM	=  sec./step
*XUNIT		=  deg.
*YUNIT		=  counts
*SCALE_MODE	=  1
*REP_COUNT	=  0
*SE_COUNT	=  0
*STD_MATERIAL	=  Unknown, Unknown, 0.000000, 0.000000, 0.000000, 0.000000, 0.000000, 0.000000
*LATT_CONS	=  0, Unknown, Unknown, 0.000000, 0.000000, 0.000000, 0.000000, 0.000000, 0.000000
*SEC_COUNT	=  1
*TSPEC_SIZE	=  0
*EXTRA_SIZE	=  0
*MEMO		=

*BEGIN
*GROUP		=  0
*START		=  42
*STOP		=  52
*STEP		=  0.01
*OFFSET		=  -0.109400
*SPEED		=  19.3131
*SLIT_SPEC	=  0, 0.400mm, 0.4, 0.000000
*SLIT_SPEC	=  1, 0.400mm, 0.4, 0.000000
*SLIT_SPEC	=  2, 0.400mm, 0.4, 0.000000
*KV		=  40
*MA		=  30
*LOW		=  0.000000
*HIGH		=  0.000000
*CTEMPER	=  0, 0.000000
*CTEMPER	=  1, 0.000000
*CTEMPER	=  2, 0.000000
*PAREX		=  0, 0.000000
*PAREX		=  1, 0.000000
*PAREX		=  2, 0.000000
*PAREX		=  3, 0.000000
*PAREX		=  4, 0.000000
*PAREX		=  5, 0.000000
*PAREX		=  6, 0.000000
*PAREX		=  7, 0.000000
*PAREX		=  8, 0.000000
*PAREX		=  9, 0.000000
*PAREX		=  10, 0.000000
*PAREX		=  11, 0.000000
*PAREX		=  12, 0.000000
*PAREX		=  13, 0.000000
*PAREX		=  14, 0.000000
*PAREX		=  15, 0.000000
*FULL_SCALE	=  2642649
*INDEX		=  0, 0, 0
*COUNT		=  1001
7.49445, 17.5056, 8, 10.4944
13.5056, 15.4944, 11.5056, 10.4944
11.5056, 13, 8, 5
19, 13, 14, 17.4944
11.5056, 13.9889, 13.0111, 15
16, 10, 11, 13.4944
15, 6.50555, 20.4944, 9.49445
17.0111, 2, 12, 7
9, 5, 6, 10.4944
17, 9.50555, 9, 10
9.49445, 10.5056, 7.98889, 6.01111
13.4944, 2.50555, 3, 12
9, 10, 4.49445, 11.5056
5, 6, 17, 6
8, 5, 8.49445, 12.5056
5, 5, 5, 13
4, 4.49445, 5.50555, 0.000000
10.9889, 4.01111, 3, 7
12, 5, 0.000000, 7
9, 2, 2, 12
2, 9, 5, 2
7, 9, 0.000000, 6
9.98889, 5.01111, 11, 20
13.4944, 13.5056, 6, 5.49445
19.5056, 16, 10, 4
4, 14, 8.49445, 7.50555
14, 16, 6, 14.4944
5, 18.5056, 7, 15
16, 14, 5, 14
7, 11.4944, 6.50555, 15.4944
17.5056, 4, 11, 18
16, 18, 8, 25
18, 38.4944, 13.5056, 21.9889
17.0111, 11, 18.4944, 28
15.5056, 20, 31, 21.4944
20.4944, 28.5056, 17, 10.5056
12.4944, 20.5056, 15, 25.4944
16.4944, 18.5056, 30.5056, 21
20, 19, 25.4944, 38.5056
13.9889, 9.01111, 14.4944, 23.5056
22, 15.4944, 18.5056, 12.9889
21.0111, 26.9889, 19.0111, 22.4944
17, 24.5056, 21.9889, 29.5056
12.5056, 13, 28, 26.9889
15.0111, 7, 11.4944, 15.5056
9, 14, 17, 16.4944
17.5056, 9, 9, 11
16.4944, 13.5056, 6, 6
12, 3.49445, 10.5056, 14
13, 4, 12, 10
6, 17, 11, 27
9, 8, 9.49445, 9.50555
3, 2, 21, 11
11, 7, 5, 5
6.49445, 11.5056, 12, 6.98889
11.0111, 2, 18, 8
13, 11, 6, 9
9, 11, 15, 20.4944
17, 9.50555, 25, 22
23, 23, 22, 28
21, 16, 20, 32
37, 30.4944, 14.5056, 33
23, 24, 24.4944, 34.5056
25.4944, 27, 38.9889, 38.5056
36.0111, 46, 27.4944, 39
47, 55.5056, 30, 44
24.9889, 47, 46, 49.5056
58.5056, 52, 50.4944, 53.5056
40.9889, 35.0111, 52, 64.4944
59.4944, 44.0111, 63, 56.4944
64, 68.4944, 59.5056, 47
45.4944, 65.5056, 70.5056, 81
56, 58.4944, 69, 33.5056
53, 64.4833, 54.5167, 41.9889
72.5056, 56.9889, 53.0111, 53.5056
51.4833, 53.5167, 54.9889, 71.0111
49.4944, 53, 45.5056, 33.4944
43.5056, 42, 60, 51.4944
52.5056, 52.9889, 37.0111, 47.9889
49, 39.0111, 46.4944, 41.5056
32, 40.4944, 44.5056, 50
53.4944, 31.5056, 40.4944, 30
35.4944, 40.4944, 48.0111, 47.5056
61.4944, 44.5056, 40.4833, 64.5056
71.0111, 45.9889, 48.5056, 68.4944
63.0111, 60.9778, 66.5167, 59.4833
76.0222, 68.9889, 63.5056, 88.9889
93.5056, 116.506, 110.989, 139.506
121.506, 147, 148.989, 173.011
148.506, 179.989, 202.494, 158
204.506, 192, 240.494, 242.978
282.517, 284.483, 319.989, 316.506
354.472, 350.022, 375.506, 426
414.472, 462.55, 448.472, 523.472
571.033, 563.483, 589.517, 631.483
680, 722.506, 738.989, 781.494
768.022, 830.45, 908.978, 927.517
974.494, 1006.49, 1112.01, 1140
1201.48, 1280.49, 1329.97, 1433.54
1434.92, 1491.03, 1665.04, 1626.42
1800.06, 1831.44, 2002.49, 1986.43
2257.59, 2218.87, 2450.55, 2448.51
2650.51, 2767.98, 2909.97, 2941.46
3098.01, 3387.87, 3516.55, 3700.06
3934.01, 4084.36, 4415.59, 4654.86
4796, 5275.54, 5471.26, 6021
6315.64, 6792.35, 7349.99, 7845.42
8647.8, 9409.54, 9989.88, 11231.9
12504.4, 13905.1, 15925.5, 18294.1
21119.2, 25095.6, 31401.8, 41554.1
60853.3, 100224, 171439, 289184
513162, 941534, 1928249.8, 7536399.5
27848188, 26984344, 3101329, 1093251.3
599314, 367262, 234462, 147765
92719.2, 58454.5, 38054.4, 26300.9
18011.3, 12698, 9092.29, 6935.19
5274.16, 3903.66, 3034.58, 2427.07
1970.02, 1545.04, 1260.99, 1138.99
896.056, 773.528, 712.494, 559.539
485.933, 403.056, 381.989, 342.011
280.506, 277, 220.506, 196.528
181.967, 152.528, 175.494, 154.494
158.506, 163.989, 175, 151.506
166.011, 125.494, 136, 126
155.011, 150.494, 166.956, 174.022
147.022, 144.494, 180.472, 177.022
181.011, 177.494, 191.989, 199
191, 188.506, 190.506, 193.494
218, 208, 177.483, 194.494
213.022, 213.989, 224.506, 202
198.517, 174.483, 192.989, 210
211.022, 204.472, 193, 190.022
167.506, 176.494, 181, 204.506
192.494, 176.989, 159.011, 161.978
155.033, 138.483, 153.517, 154.483
133.506, 143.506, 160, 124.989
126.517, 125.989, 146, 123.517
118.494, 117.989, 110.506, 117.494
116, 81.5167, 115, 94.9889
69.0111, 68, 85, 71
70.4944, 78, 75.9889, 86.5056
60.5056, 49, 46.5056, 46.4944
35.4944, 41, 39.0111, 64.9889
37.0111, 31, 37, 51
42.4944, 24.5056, 33.4833, 35.5167
31.4944, 25.5056, 9, 20.4944
18.5056, 6, 22, 23.4944
18.5056, 8, 28, 11.9889
11.0111, 18.9889, 18.5056, 25
25.5056, 12, 15.9889, 18.0111
20.4944, 15.5056, 28, 28
27, 9.98889, 24.0111, 29.4944
26.5056, 37.4944, 37.5056, 13
32, 30.4944, 40.5056, 25
42, 45.4944, 29.5056, 36.4944
41, 27.4944, 27.0111, 35.4944
48.5056, 41.4944, 37, 40.5056
48, 44, 58.4944, 64.9889
48.0111, 62.9889, 64.0111, 61.4944
61.4944, 53.5167, 57.4944, 62.5056
51, 68.4944, 33.9889, 62.5167
47, 56.4944, 64, 81.4944
63, 65.4944, 66.0111, 50.5056
66.4833, 62.5056, 72.5056, 52
55.4833, 69.5167, 43.5056, 67.9889
70.0111, 57, 69, 74
62, 49, 58.9889, 46.5056
49.4944, 79.0111, 46, 36.4944
53.9889, 56.5056, 44.0111, 41
54, 66.4833, 54.0111, 34
32.4944, 43.5056, 41.5056, 60.4722
35.5278, 34, 41, 39.4944
25, 23, 39.5056, 34
39.4944, 15.4944, 32.0111, 37
14.4944, 31, 32.5056, 25
26, 24, 16, 15
10, 13, 9.49445, 16.5056
13.4944, 15.5056, 9.98889, 6.01111
17, 21, 8.49445, 13.5056
7, 8, 4, 5
15, 5, 9, 15
27, 0.000000, 9.49445, 6.50555
15.4944, 6.50555, 3.98889, 2.01111
16, 11, 0.000000, 0.000000
4.98889, 3.01111, 18, 8
3, 4, 2, 9
4, 6, 14, 0.000000
3, 41, 4, 3
11, 5, 13, 6
4, 8, 4, 5
10, 11, 13, 13
8, 14.4944, 10.4944, 8.01111
8, 19, 14, 9
8, 19, 27, 11
7, 30, 15.9889, 20.5056
18.5056, 25.4944, 13.5056, 21
30.9889, 8.01111, 19, 17.9889
14.5056, 13, 22.5056, 14
9, 6, 6, 22
16, 13, 15, 10
12, 5, 13, 16.9889
23.0111, 13, 13, 12
23, 13, 10, 25
16, 6.49445, 11.5056, 7
16, 8, 8, 8
12, 11, 16, 9
13, 15, 12, 6
10, 12, 11, 6.98889
10.0111, 17, 10, 3
0.000000, 12, 5, 5
0.000000, 7, 12, 14
5, 7, 4, 1
7, 8, 8, 20
0.000000, 5, 0.000000, 3
3, 2, 10, 4
2, 6, 9, 6
4, 7, 10, 5
10, 4, 0.000000, 7
4, 6, 3, 7
4, 3, 4, 0.000000
9.49445, 8.50555, 5, 43
5, 3, 0.000000, 7
2.49445, 2.50555, 0.000000, 6
10, 3, 6, 7
13.4944, 7.50555, 3, 13
8, 11, 4, 2
4, 7, 6, 8
5, 7, 5.49445, 5.50555
4, 7, 6, 3
12, 4, 4, 4
6, 11, 4, 2
2, 5, 3, 6
7, 4, 7, 7
7, 8, 7, 0.000000
3, 7.49445, 8.50555, 2
6, 4.49445, 12.4944, 10.5056
5.50555, 2, 4, 11.4944
2.50555, 7, 3, 4
5, 4, 0.000000, 19
2, 2, 5, 0.000000
8.49445, 7.50555, 0.000000, 16
6, 4, 3, 9
5, 8.49445, 2.50555, 12
5.49445, 2.50555, 4, 0.000000
5, 0.000000, 3, 2
6, 5, 13, 2
2, 8.49445, 4, 1.50555
2.49445, 4, 6.50555, 2
0.000000, 14, 5, 1.49445
0.505554, 3, 4.49445, 7.50555
8
*END

*EOF