File: XRD:XRR/SCO/22135_SCOT/22135_SCOT_XRD_002.csv
#twotheta, yobs, ycal, bkg, diff
42.0,7.4944,1.0,1.0,1.0
42.04,13.5056,1.0,1.0,1.0
42.08,11.5056,1.0,1.0,1.0
42.12,19.0,1.0,1.0,1.0
42.16,11.5056,1.0,1.0,1.0
42.2,16.0,1.0,1.0,1.0
42.24,15.0,1.0,1.0,1.0
42.28,17.0111,1.0,1.0,1.0
42.32,9.0,1.0,1.0,1.0
42.36,17.0,1.0,1.0,1.0
42.4,9.4944,1.0,1.0,1.0
42.44,13.4944,1.0,1.0,1.0
42.48,9.0,1.0,1.0,1.0
42.52,5.0,1.0,1.0,1.0
42.56,8.0,1.0,1.0,1.0
42.6,5.0,1.0,1.0,1.0
42.64,4.0,1.0,1.0,1.0
42.68,10.9889,1.0,1.0,1.0
42.72,12.0,1.0,1.0,1.0
42.76,9.0,1.0,1.0,1.0
42.8,2.0,1.0,1.0,1.0
42.84,7.0,1.0,1.0,1.0
42.88,9.9889,1.0,1.0,1.0
42.92,13.4944,1.0,1.0,1.0
42.96,19.5056,1.0,1.0,1.0
43.0,4.0,1.0,1.0,1.0
43.04,14.0,1.0,1.0,1.0
43.08,5.0,1.0,1.0,1.0
43.12,16.0,1.0,1.0,1.0
43.16,7.0,1.0,1.0,1.0
43.2,17.5056,1.0,1.0,1.0
43.24,16.0,1.0,1.0,1.0
43.28,18.0,1.0,1.0,1.0
43.32,17.0111,1.0,1.0,1.0
43.36,15.5056,1.0,1.0,1.0
43.4,20.4944,1.0,1.0,1.0
43.44,12.4944,1.0,1.0,1.0
43.48,16.4944,1.0,1.0,1.0
43.52,20.0,1.0,1.0,1.0
43.56,13.9889,1.0,1.0,1.0
43.6,22.0,1.0,1.0,1.0
43.64,21.0111,1.0,1.0,1.0
43.68,17.0,1.0,1.0,1.0
43.72,12.5056,1.0,1.0,1.0
43.76,15.0111,1.0,1.0,1.0
43.8,9.0,1.0,1.0,1.0
43.84,17.5056,1.0,1.0,1.0
43.88,16.4944,1.0,1.0,1.0
43.92,12.0,1.0,1.0,1.0
43.96,13.0,1.0,1.0,1.0
44.0,6.0,1.0,1.0,1.0
44.04,9.0,1.0,1.0,1.0
44.08,3.0,1.0,1.0,1.0
44.12,11.0,1.0,1.0,1.0
44.16,6.4944,1.0,1.0,1.0
44.2,11.0111,1.0,1.0,1.0
44.24,13.0,1.0,1.0,1.0
44.28,9.0,1.0,1.0,1.0
44.32,17.0,1.0,1.0,1.0
44.36,23.0,1.0,1.0,1.0
44.4,21.0,1.0,1.0,1.0
44.44,37.0,1.0,1.0,1.0
44.48,23.0,1.0,1.0,1.0
44.52,25.4944,1.0,1.0,1.0
44.56,36.0111,1.0,1.0,1.0
44.6,47.0,1.0,1.0,1.0
44.64,24.9889,1.0,1.0,1.0
44.68,58.5056,1.0,1.0,1.0
44.72,40.9889,1.0,1.0,1.0
44.76,59.4944,1.0,1.0,1.0
44.8,64.0,1.0,1.0,1.0
44.84,45.4944,1.0,1.0,1.0
44.88,56.0,1.0,1.0,1.0
44.92,53.0,1.0,1.0,1.0
44.96,72.5056,1.0,1.0,1.0
45.0,51.4833,1.0,1.0,1.0
45.04,49.4944,1.0,1.0,1.0
45.08,43.5056,1.0,1.0,1.0
45.12,52.5056,1.0,1.0,1.0
45.16,49.0,1.0,1.0,1.0
45.2,32.0,1.0,1.0,1.0
45.24,53.4944,1.0,1.0,1.0
45.28,35.4944,1.0,1.0,1.0
45.32,61.4944,1.0,1.0,1.0
45.36,71.0111,1.0,1.0,1.0
45.4,63.0111,1.0,1.0,1.0
45.44,76.0222,1.0,1.0,1.0
45.48,93.5056,1.0,1.0,1.0
45.52,121.5056,1.0,1.0,1.0
45.56,148.5056,1.0,1.0,1.0
45.6,204.5056,1.0,1.0,1.0
45.64,282.5167,1.0,1.0,1.0
45.68,354.4722,1.0,1.0,1.0
45.72,414.4722,1.0,1.0,1.0
45.76,571.0333,1.0,1.0,1.0
45.8,680.0,1.0,1.0,1.0
45.84,768.0222,1.0,1.0,1.0
45.88,974.4944,1.0,1.0,1.0
45.92,1201.48,1.0,1.0,1.0
45.96,1434.92,1.0,1.0,1.0
46.0,1800.06,1.0,1.0,1.0
46.04,2257.59,1.0,1.0,1.0
46.08,2650.51,1.0,1.0,1.0
46.12,3098.01,1.0,1.0,1.0
46.16,3934.01,1.0,1.0,1.0
46.2,4796.0,1.0,1.0,1.0
46.24,6315.64,1.0,1.0,1.0
46.28,8647.8,1.0,1.0,1.0
46.32,12504.4,1.0,1.0,1.0
46.36,21119.2,1.0,1.0,1.0
46.4,60853.332,1.0,1.0,1.0
46.44,513162,1.0,1.0,1.0
46.48,27848188.0,1.0,1.0,1.0
46.52,599314,1.0,1.0,1.0
46.56,92719.2,1.0,1.0,1.0
46.6,18011.3,1.0,1.0,1.0
46.64,5274.16,1.0,1.0,1.0
46.68,1970.02,1.0,1.0,1.0
46.72,896.0555,1.0,1.0,1.0
46.76,485.9333,1.0,1.0,1.0
46.8,280.5056,1.0,1.0,1.0
46.84,181.9667,1.0,1.0,1.0
46.88,158.5056,1.0,1.0,1.0
46.92,166.0111,1.0,1.0,1.0
46.96,155.0111,1.0,1.0,1.0
47.0,147.0222,1.0,1.0,1.0
47.04,181.0111,1.0,1.0,1.0
47.08,191.0,1.0,1.0,1.0
47.12,218.0,1.0,1.0,1.0
47.16,213.0222,1.0,1.0,1.0
47.2,198.5167,1.0,1.0,1.0
47.24,211.0222,1.0,1.0,1.0
47.28,167.5056,1.0,1.0,1.0
47.32,192.4944,1.0,1.0,1.0
47.36,155.0333,1.0,1.0,1.0
47.4,133.5056,1.0,1.0,1.0
47.44,126.5167,1.0,1.0,1.0
47.48,118.4944,1.0,1.0,1.0
47.52,116.0,1.0,1.0,1.0
47.56,69.0111,1.0,1.0,1.0
47.6,70.4944,1.0,1.0,1.0
47.64,60.5056,1.0,1.0,1.0
47.68,35.4944,1.0,1.0,1.0
47.72,37.0111,1.0,1.0,1.0
47.76,42.4944,1.0,1.0,1.0
47.8,31.4944,1.0,1.0,1.0
47.84,18.5056,1.0,1.0,1.0
47.88,18.5056,1.0,1.0,1.0
47.92,11.0111,1.0,1.0,1.0
47.96,25.5056,1.0,1.0,1.0
48.0,20.4944,1.0,1.0,1.0
48.04,27.0,1.0,1.0,1.0
48.08,26.5056,1.0,1.0,1.0
48.12,32.0,1.0,1.0,1.0
48.16,42.0,1.0,1.0,1.0
48.2,41.0,1.0,1.0,1.0
48.24,48.5056,1.0,1.0,1.0
48.28,48.0,1.0,1.0,1.0
48.32,48.0111,1.0,1.0,1.0
48.36,61.4944,1.0,1.0,1.0
48.4,51.0,1.0,1.0,1.0
48.44,47.0,1.0,1.0,1.0
48.48,63.0,1.0,1.0,1.0
48.52,66.4833,1.0,1.0,1.0
48.56,55.4833,1.0,1.0,1.0
48.6,70.0111,1.0,1.0,1.0
48.64,62.0,1.0,1.0,1.0
48.68,49.4944,1.0,1.0,1.0
48.72,53.9889,1.0,1.0,1.0
48.76,54.0,1.0,1.0,1.0
48.8,32.4944,1.0,1.0,1.0
48.84,35.5278,1.0,1.0,1.0
48.88,25.0,1.0,1.0,1.0
48.92,39.4944,1.0,1.0,1.0
48.96,14.4944,1.0,1.0,1.0
49.0,26.0,1.0,1.0,1.0
49.04,10.0,1.0,1.0,1.0
49.08,13.4944,1.0,1.0,1.0
49.12,17.0,1.0,1.0,1.0
49.16,7.0,1.0,1.0,1.0
49.2,15.0,1.0,1.0,1.0
49.24,27.0,1.0,1.0,1.0
49.28,15.4944,1.0,1.0,1.0
49.32,16.0,1.0,1.0,1.0
49.36,4.9889,1.0,1.0,1.0
49.4,3.0,1.0,1.0,1.0
49.44,4.0,1.0,1.0,1.0
49.48,3.0,1.0,1.0,1.0
49.52,11.0,1.0,1.0,1.0
49.56,4.0,1.0,1.0,1.0
49.6,10.0,1.0,1.0,1.0
49.64,8.0,1.0,1.0,1.0
49.68,8.0,1.0,1.0,1.0
49.72,8.0,1.0,1.0,1.0
49.76,7.0,1.0,1.0,1.0
49.8,18.5056,1.0,1.0,1.0
49.84,30.9889,1.0,1.0,1.0
49.88,14.5056,1.0,1.0,1.0
49.92,9.0,1.0,1.0,1.0
49.96,16.0,1.0,1.0,1.0
50.0,12.0,1.0,1.0,1.0
50.04,23.0111,1.0,1.0,1.0
50.08,23.0,1.0,1.0,1.0
50.12,16.0,1.0,1.0,1.0
50.16,16.0,1.0,1.0,1.0
50.2,12.0,1.0,1.0,1.0
50.24,13.0,1.0,1.0,1.0
50.28,10.0,1.0,1.0,1.0
50.32,10.0111,1.0,1.0,1.0
50.36,0.0,1.0,1.0,1.0
50.4,0.0,1.0,1.0,1.0
50.44,5.0,1.0,1.0,1.0
50.48,7.0,1.0,1.0,1.0
50.52,0.0,1.0,1.0,1.0
50.56,3.0,1.0,1.0,1.0
50.6,2.0,1.0,1.0,1.0
50.64,4.0,1.0,1.0,1.0
50.68,10.0,1.0,1.0,1.0
50.72,4.0,1.0,1.0,1.0
50.76,4.0,1.0,1.0,1.0
50.8,9.4944,1.0,1.0,1.0
50.84,5.0,1.0,1.0,1.0
50.88,2.4944,1.0,1.0,1.0
50.92,10.0,1.0,1.0,1.0
50.96,13.4944,1.0,1.0,1.0
51.0,8.0,1.0,1.0,1.0
51.04,4.0,1.0,1.0,1.0
51.08,5.0,1.0,1.0,1.0
51.12,4.0,1.0,1.0,1.0
51.16,12.0,1.0,1.0,1.0
51.2,6.0,1.0,1.0,1.0
51.24,2.0,1.0,1.0,1.0
51.28,7.0,1.0,1.0,1.0
51.32,7.0,1.0,1.0,1.0
51.36,3.0,1.0,1.0,1.0
51.4,6.0,1.0,1.0,1.0
51.44,5.5056,1.0,1.0,1.0
51.48,2.5056,1.0,1.0,1.0
51.52,5.0,1.0,1.0,1.0
51.56,2.0,1.0,1.0,1.0
51.6,8.4944,1.0,1.0,1.0
51.64,6.0,1.0,1.0,1.0
51.68,5.0,1.0,1.0,1.0
51.72,5.4944,1.0,1.0,1.0
51.76,5.0,1.0,1.0,1.0
51.8,6.0,1.0,1.0,1.0
51.84,2.0,1.0,1.0,1.0
51.88,2.4944,1.0,1.0,1.0
51.92,0.0,1.0,1.0,1.0
51.96,0.5056,1.0,1.0,1.0
52.0,8.0,1.0,1.0,1.0