File: XRD:XRR/LCO/22148a_LCOL/22148a_LCOL_XRD_2-Theta_Omega.asc
*TYPE		=  Raw
*CLASS		=  ASCII CLASS
*SAMPLE		=
*COMMENT	=
*FNAME		=  22148a_SCOL_XRD_2-Theta_Omega.asc
*DATE		=  07-Oct-22 02:56

*GROUP_COUNT	=  1
*GONIO		=  SmartLab(In-plane), 0.000000
*ATTACHMENT	=  Z-Phi Stage
*ASC		=  0, 0, 0.000000, 0.000000
*I_MONOCHRO	=  Ge(220)x2, 0.000000
*FILTER		=  None
*C_MONOCHRO	=  None, 0.000000
*SLIT_NAME	=  0, Incident slit
*SLIT_NAME	=  1, Receiving slit # 1
*SLIT_NAME	=  2, Receiving slit # 2
*COUNTER	=  D/teX Ultra 250, 0
*POS_FORMAT	=  0
*SCAN_AXIS	=  2Theta/Omega
*MEAS_MODE	=  Continuous Scanning
*TARGET		=  29
*XRAY_CHAR	=  K-ALPHA1
*WAVE_LENGTH1	=  1.54059
*WAVE_LENGTH2	=  1.54441
*THICKNESS	=  0, 0.000000
*MU		=  0, 0.000000
*SCAN_MODE	=  2Theta/Omega
*SPEED_DIM	=  sec./step
*XUNIT		=  deg.
*YUNIT		=  counts
*SCALE_MODE	=  1
*REP_COUNT	=  0
*SE_COUNT	=  0
*STD_MATERIAL	=  Unknown, Unknown, 0.000000, 0.000000, 0.000000, 0.000000, 0.000000, 0.000000
*LATT_CONS	=  0, Unknown, Unknown, 0.000000, 0.000000, 0.000000, 0.000000, 0.000000, 0.000000
*SEC_COUNT	=  2
*TSPEC_SIZE	=  0
*EXTRA_SIZE	=  0
*MEMO		=

*BEGIN
*GROUP		=  0
*START		=  42
*STOP		=  52
*STEP		=  0.01
*OFFSET		=  0.1659
*SPEED		=  23.9588
*SLIT_SPEC	=  0, 0.400mm, 0.4, 0.000000
*SLIT_SPEC	=  1, 0.400mm, 0.4, 0.000000
*SLIT_SPEC	=  2, 0.400mm, 0.4, 0.000000
*KV		=  40
*MA		=  30
*LOW		=  0.000000
*HIGH		=  0.000000
*CTEMPER	=  0, 0.000000
*CTEMPER	=  1, 0.000000
*CTEMPER	=  2, 0.000000
*PAREX		=  0, 0.000000
*PAREX		=  1, 0.000000
*PAREX		=  2, 0.000000
*PAREX		=  3, 0.000000
*PAREX		=  4, 0.000000
*PAREX		=  5, 0.000000
*PAREX		=  6, 0.000000
*PAREX		=  7, 0.000000
*PAREX		=  8, 0.000000
*PAREX		=  9, 0.000000
*PAREX		=  10, 0.000000
*PAREX		=  11, 0.000000
*PAREX		=  12, 0.000000
*PAREX		=  13, 0.000000
*PAREX		=  14, 0.000000
*PAREX		=  15, 0.000000
*FULL_SCALE	=  779471
*INDEX		=  0, 0, 0
*COUNT		=  1001
9.98889, 11.0111, 12, 15.4944
16, 19.5056, 17, 24
17.4944, 14.5056, 18.4944, 14
7.50555, 12, 10.4944, 21.5056
8.49445, 21.5056, 17, 20
5.49445, 18.5056, 4, 24
2, 9.49445, 23, 17.5056
14, 20, 19.4944, 24.5056
7, 12, 15.9889, 21.0111
11, 17.9889, 24.0111, 22.4944
19.5056, 17, 27.4944, 19.5056
13, 21, 16, 18.4944
26.5056, 17, 12, 28
20, 5, 17, 30.4944
10.5056, 32, 34, 17
18, 22, 29, 22
15, 31, 11, 17.4944
34.5056, 37, 36, 31.4944
29, 22.5056, 23, 21.4944
20.5056, 33, 16, 18.4944
30.5056, 15, 24, 26
35, 14, 18, 19
30, 18.4944, 16.5056, 12.4944
10, 9.50555, 25, 15.4944
11, 23, 15.5056, 17.9889
9.50555, 19.5056, 20, 12
19, 13, 17.4944, 22.5056
20, 14, 20, 12.9889
20.5056, 18.4944, 10.0111, 20.4944
31.5056, 29, 14, 15
15, 20, 34, 17.4944
21.5056, 18, 26, 27
16.9889, 72.5056, 28.5056, 16
26, 39, 37, 23.4944
37.5056, 41, 31, 40
30, 48.4944, 34.4944, 40
36.0111, 30, 34.4944, 22
38.5056, 40.9889, 43.5056, 45
56.4944, 38.0111, 39, 47
44, 44, 28, 23
63.4944, 40, 55.5056, 49.4833
59.5056, 43.0111, 33.4944, 62
44.4944, 56.4944, 42.5167, 27.4944
49.4944, 35.0111, 45.4833, 46.0111
31.4944, 31.5056, 46, 37
37.5056, 37, 37.4944, 25.5056
27, 30, 18.4944, 48.5056
31, 21, 43.9889, 33.0111
22.9889, 33.0111, 16.4944, 18.5056
29, 23, 24, 11
21.4944, 21, 19.5056, 16
27, 21, 12, 17.4944
32, 26.5056, 16.4944, 34
25.4944, 21.0111, 27, 27.4944
22, 36, 34.5056, 32.4944
55, 54.4944, 49.9889, 60.5056
47.0111, 61.5056, 52, 51.9889
66.5056, 67.4944, 59.4944, 69.0111
103.494, 71.9889, 95.5056, 81.5056
83, 87.9889, 81.0222, 113.483
99.5167, 108, 114, 107.989
111, 106, 121.506, 113.506
120.494, 132.989, 102.011, 139
145.483, 142.011, 124, 135.506
152.494, 128.011, 132.494, 138.989
148, 158.506, 119.506, 111.483
127.022, 119.494, 125.494, 111.494
124.011, 129.494, 99, 103.494
117.483, 112.022, 101.494, 95.4944
88.5056, 62.5167, 72, 90.4944
82, 66, 47, 52
62, 50.5056, 44, 49
29, 42.9889, 32, 50.0111
39.9889, 41.0111, 40.4944, 41.4944
42.0111, 39, 53.9889, 51
55.4944, 61.5167, 80.4833, 73.5167
80.4944, 72.4944, 107.989, 119.506
142.494, 156, 143.494, 203.528
209.967, 215.022, 214.494, 293
290, 299.461, 297.033, 347.483
382, 368.494, 487.472, 515.989
527.528, 540.989, 648, 689.506
697.472, 798.033, 839.45, 885.011
963.472, 952.506, 1019.97, 1092.55
1165, 1187.48, 1245.97, 1255.48
1431.48, 1486.03, 1484.52, 1608.47
1642.01, 1649.47, 1774.47, 1931.98
1926.98, 1992.54, 2059.52, 2116.49
2163.92, 2277.52, 2382.51, 2465.96
2583.09, 2568.92, 2738.44, 2728.06
2843.51, 2971.42, 2930.02, 3141.92
3239.13, 3105.46, 3394.96, 3317.48
3400.52, 3490.56, 3626.93, 3680.41
3703.07, 3720.47, 3756.48, 3903.04
3984.48, 4049.92, 4092.52, 4153.56
4087.06, 4297.37, 4263.55, 4272.96
4266.09, 4229.49, 4426.45, 4397.94
4513.56, 4480.97, 4641, 4586.45
4497.48, 4556.53, 4600.54, 4533.46
4728.97, 4586.03, 4570.44, 4601.04
4664.11, 4645.91, 4597.56, 4506.37
4586.71, 4452.83, 4573.09, 4529.02
4416, 4323.51, 4506.43, 4289.57
4322.46, 4378.46, 4246.57, 4219.47
4231.98, 4009.04, 3933.53, 3947.49
3862.46, 3775.62, 3727.43, 3774.52
3581.55, 3529.46, 3401.96, 3350.09
3255.96, 3119.58, 3121.91, 3098.02
3066, 3012.02, 2857.49, 2684.57
2697.54, 2666.99, 2453.46, 2561.06
2295.47, 2224.08, 2192.98, 2073.51
2046.48, 1966.51, 1932.49, 1818.99
1750.53, 1601.53, 1556.52, 1446.52
1383.96, 1330.54, 1181.03, 1216.98
1117.56, 1128.45, 951.067, 942.956
927.539, 846.989, 751.528, 670
654.472, 645.989, 565.033, 537.528
514.461, 474.494, 363.539, 423.506
390.506, 335.989, 320.506, 260.494
262, 234.011, 236.494, 193.494
178.517, 166.011, 147.494, 171.506
165.483, 167, 159, 162.506
138.494, 153.022, 161.989, 154.506
173.494, 143.472, 209.517, 223.989
219.033, 206.483, 234.483, 237.517
304.978, 321.506, 309, 354.506
360.506, 392.472, 385.011, 448.967
429, 471.517, 505.494, 501.517
502.472, 547.539, 590.472, 574
575.506, 632.494, 639.967, 704.989
685.011, 706.033, 729.978, 749.978
760.461, 836.022, 845.494, 884.539
870.472, 909.539, 941.967, 945.517
896.461, 913, 1004.54, 945.494
1009.01, 964.022, 1006.98, 945.483
991.506, 1029.97, 989.033, 988.517
964.978, 1061.49, 1020.02, 1071.93
1081.01, 1072.04, 1099.51, 1047.45
1125.47, 1196.04, 1103.49, 1147.03
1226.51, 1193.51, 1189.98, 1229.94
1269.49, 1307.54, 1367.47, 1331.03
1398.43, 1422, 1519.06, 1526.46
1669.53, 1797.94, 1870.53, 1935.41
2051.03, 2173.07, 2302.89, 2551.41
2782.58, 3067.94, 3412.98, 3878.98
4296.88, 4830.03, 5562.82, 6527.81
7728.93, 9479.23, 11953.3, 15479.7
20933.5, 30164.7, 46472, 73319.2
124588, 246781, 797978, 1913390.3
2993079, 8081479.5, 14760429, 9042081
2270837.3, 544664, 269417, 155430
95244.7, 59564.1, 37981.5, 26718.4
19396.6, 14473.5, 10828.4, 8398.62
6781.24, 5460.12, 4579.55, 3970.53
3273.65, 2870.89, 2506.14, 2277.03
1873.53, 1681.54, 1434, 1326.09
1172.47, 1101.51, 992.989, 899.967
818.044, 783.022, 683.472, 575.033
558, 552.539, 496.967, 478.517
442, 393.011, 376.967, 381.528
334.011, 326.483, 309.528, 291.483
290, 278.033, 266.989, 260.494
273.506, 246, 219.967, 226.044
187.978, 203.506, 203.989, 199.011
205.494, 176, 156.011, 191
193.011, 164, 189.483, 159.506
169.494, 145, 179.494, 173.011
146.989, 130, 175.989, 171.494
150.528, 134, 149.011, 135.506
135.989, 138.494, 149.506, 105
107.506, 123.483, 126.022, 88
118.483, 108.011, 112.506, 112.483
103.506, 103.989, 95.0111, 114.011
87.4722, 81.0222, 68, 87.4944
63.0111, 73.9889, 77.5056, 75
60, 63.4833, 54.5056, 61
54.5056, 46, 51, 60.5056
40.4944, 46.5056, 18, 50
28.4944, 38.0111, 37, 22.9889
17.5056, 30, 31.5056, 24
23, 34, 28.4944, 21
24, 12.5056, 18, 18
18, 20.9889, 15.0111, 9
23, 8, 8, 20
18, 17, 17, 17.4944
25, 16.5056, 29, 30
28.9889, 20.5056, 25.5056, 20.4944
19, 64.4944, 18.0111, 24.4944
26.4944, 19.0111, 23, 15.4944
19.5056, 20, 35.4944, 38
25, 27.5056, 23, 22
37, 18, 19.4944, 34.5056
33, 16, 27, 21
13, 39, 18, 21
20.4944, 24.5056, 27, 18.4944
7, 24.5056, 13, 13.9889
29.0111, 19, 21, 21
18.4944, 13.5056, 17.4944, 21.5056
9, 19, 21.4944, 19
22.4944, 20.0111, 70.4944, 24.5056
22, 25, 17, 7
11, 18, 15, 16
9, 12.4944, 10.5056, 15
7, 6, 8, 7.49445
12.5056, 7, 17, 7
9, 14, 12, 9
8.49445, 12.4944, 4.01111, 4
6, 16, 13, 13
1, 11, 8, 12
13, 10, 6, 10
3, 13.4944, 2.50555, 13
15, 15, 13, 13
25, 12.4833, 48.5167, 12
14, 15, 11, 11
10.4944, 17.5056, 21.9889, 10.0111
20, 12, 15.4944, 8.50555
23.4944, 20.5056, 14, 14
13.4944, 18.5056, 18, 14
16.4944, 13.5056, 4.49445, 19
12.5056, 10, 9, 25.4944
13.5056, 17, 10.4944, 4.50555
8, 2.49445, 4.50555, 8
9, 7, 13, 20
11.4944, 10.5056, 12, 17.4944
11, 11, 14.5056, 6.49445
6.50555, 4, 10, 3
10, 9, 2, 14
16, 11, 9, 12.4944
10.5056, 7, 13, 11.9889
6.01111, 5, 12, 2
4, 7, 11, 3
9, 7, 10, 10
8, 14.4944, 18.4944, 10.5056
7.50555, 10, 6, 13
14, 4, 14.9889, 14.5056
15.5056, 11, 8, 5
19, 14, 5, 2
7, 2, 14, 3
4, 14, 6, 12
4, 14, 21.4944, 8.50555
3, 12, 15, 4
3, 11, 9, 12
6, 9, 17, 6.49445
23.5056, 2, 6, 9
8, 15.4944, 14.5056, 8
11, 5, 11.4944, 13.5056
17, 9, 17.4944, 13.5056
14, 6, 14, 8
8, 13, 10, 6
12, 6, 22, 18
9.49445
*END

*BEGIN
*GROUP		=  0
*START		=  0.4
*STOP		=  4.5
*STEP		=  0.01
*OFFSET		=  0.1659
*SPEED		=  20.6484
*SLIT_SPEC	=  0, 1.000mm, 1, 0.000000
*SLIT_SPEC	=  1, 1.000mm, 1, 0.000000
*SLIT_SPEC	=  2, 1.000mm, 1, 0.000000
*KV		=  40
*MA		=  30
*LOW		=  0.000000
*HIGH		=  0.000000
*CTEMPER	=  0, 0.000000
*CTEMPER	=  1, 0.000000
*CTEMPER	=  2, 0.000000
*PAREX		=  0, 0.000000
*PAREX		=  1, 0.000000
*PAREX		=  2, 0.000000
*PAREX		=  3, 0.000000
*PAREX		=  4, 0.000000
*PAREX		=  5, 0.000000
*PAREX		=  6, 0.000000
*PAREX		=  7, 0.000000
*PAREX		=  8, 0.000000
*PAREX		=  9, 0.000000
*PAREX		=  10, 0.000000
*PAREX		=  11, 0.000000
*PAREX		=  12, 0.000000
*PAREX		=  13, 0.000000
*PAREX		=  14, 0.000000
*PAREX		=  15, 0.000000
*FULL_SCALE	=  63869.5
*INDEX		=  0, 0, 0
*COUNT		=  411
845353, 881113, 913112, 943814
971042, 995856, 1017605.5, 1035204.5
1054328.5, 1065138.5, 1071292.5, 1076493.5
1077091.5, 1074542, 1069938, 1064046
1056465, 1043319.5, 1028443, 1009202
988334, 963032, 939002, 908868
879772, 847214, 811636, 776445
739222, 703720, 667535, 628463
591796, 554896, 520062, 485671
452086, 419285, 387585, 358485
331159, 304764, 280371, 258396
237975, 218469, 201420, 185364
171033, 158133, 145476, 134747
124908, 114987, 107301, 100083
92693, 86259.5, 80142, 74757
69417.5, 65716.5, 61414.5, 57371.5
53607.5, 50209.5, 47420, 44464
42251.5, 39922.5, 37852, 36257
33894.5, 32403, 31060, 30200
28969.5, 27885.5, 26923, 25865
25210.5, 24392, 23460.5, 22700
22325.5, 21553.5, 21144.5, 20750
20049, 19620.5, 19225.5, 18750.5
18350, 18043.5, 17417, 17515
17112, 16453, 16162, 15975
15491, 15219.5, 14958, 14614.5
14232, 13900.5, 13375.5, 13599
12904, 12599, 12350, 12017
11681.5, 11529.5, 11092, 10793
10668.5, 10179.5, 10118, 10000.5
9330.5, 9102, 8843.5, 8742
8260.5, 8123, 7896, 7623
7458, 7226, 6956.5, 6484
6403, 6179, 6113, 5909
5664.5, 5574, 5265.5, 5133.5
4846.5, 4792, 4763.5, 4592
4410.5, 4291, 4331.5, 4076.5
4054, 3917, 3762, 3718.5
3769, 3540, 3512, 3362
3292.5, 3374, 3264.5, 3239
3258.5, 3170, 3139, 3158.5
2929.5, 2971, 2870.5, 2964.5
2952, 2840.5, 2913.5, 2905.5
2800, 2789.5, 2726.5, 2704.5
2637.5, 2632, 2589.5, 2607.5
2661.5, 2521, 2523.5, 2458.5
2558, 2450.5, 2457, 2508.5
2313, 2312.5, 2185, 2243
2230, 2206, 2172, 2092.5
2088, 2163, 2112.5, 1944
1951, 1913.5, 1801, 1823
1830.5, 1778, 1690.5, 1679
1689.5, 1563, 1529.5, 1524.5
1473.5, 1485.5, 1424.5, 1432
1375, 1373.5, 1312, 1288
1251, 1218.5, 1237.5, 1199.5
1193.5, 1205, 1135, 1088
1115.5, 1115, 1091.5, 1084.5
1019.5, 1025, 1090.5, 1060
965.5, 981, 1046.5, 998
939, 1018.5, 943, 929
956.5, 962.5, 903, 868
906, 860, 929.5, 970.5
964.5, 925.5, 880, 849.5
872, 864, 901.5, 871.5
881.5, 818.5, 835, 850
786.5, 825, 796, 825
810.5, 827.5, 787, 778
803, 768.5, 839.5, 799
749, 782.5, 772, 773.5
761, 757.5, 672.5, 640
721.5, 787, 750.001, 729
629.5, 649.5, 739.5, 661
662, 602, 648, 662.5
612, 651.5, 643.5, 617
562, 534.5, 582, 555.5
588.5, 593, 576.5, 564
543.5, 559.5, 550.5, 549
482.5, 515.5, 540, 547
565.5, 453, 531.499, 523.5
434.5, 478.5, 514.5, 517.5
516, 499.5, 499.5, 538
522.5, 478, 551, 519.5
506.5, 433, 510, 520
507, 491, 523.5, 480.5
473.5, 461.5, 477, 540.5
463.5, 510.5, 478, 469.5
477, 506.5, 522.999, 502
448.5, 522, 484.5, 503
462, 511.5, 474, 488.5
456, 501, 468.5, 434.5
467, 457, 436, 475.5
472, 405.5, 408.5, 441
428, 444.5, 433.5, 434
359, 448.5, 463, 412.5
435, 442.001, 421, 453
445, 432, 434.5, 409.5
436, 422, 449, 451.5
358.5, 404.5, 429, 391
423.5, 378, 426.5, 412.5
431.5, 406.5, 383.5, 433.5
379, 363, 425, 365.5
438, 385, 432
*END

*EOF