File: XRD:XRR/LCO/22148a_LCOL/22148a_LCOL_XRD.csv
#twotheta, yobs, ycal, bkg, diff
42.0,9.9889,1.0,1.0,1.0
42.05,19.5056,1.0,1.0,1.0
42.1,18.4944,1.0,1.0,1.0
42.15,21.5056,1.0,1.0,1.0
42.2,5.4944,1.0,1.0,1.0
42.25,9.4944,1.0,1.0,1.0
42.3,19.4944,1.0,1.0,1.0
42.35,21.0111,1.0,1.0,1.0
42.4,19.5056,1.0,1.0,1.0
42.45,21.0,1.0,1.0,1.0
42.5,12.0,1.0,1.0,1.0
42.55,30.4944,1.0,1.0,1.0
42.6,18.0,1.0,1.0,1.0
42.65,31.0,1.0,1.0,1.0
42.7,36.0,1.0,1.0,1.0
42.75,21.4944,1.0,1.0,1.0
42.8,30.5056,1.0,1.0,1.0
42.85,14.0,1.0,1.0,1.0
42.9,16.5056,1.0,1.0,1.0
42.95,15.4944,1.0,1.0,1.0
43.0,9.5056,1.0,1.0,1.0
43.05,13.0,1.0,1.0,1.0
43.1,20.0,1.0,1.0,1.0
43.15,20.4944,1.0,1.0,1.0
43.2,15.0,1.0,1.0,1.0
43.25,18.0,1.0,1.0,1.0
43.3,28.5056,1.0,1.0,1.0
43.35,23.4944,1.0,1.0,1.0
43.4,30.0,1.0,1.0,1.0
43.45,30.0,1.0,1.0,1.0
43.5,43.5056,1.0,1.0,1.0
43.55,47.0,1.0,1.0,1.0
43.6,63.4944,1.0,1.0,1.0
43.65,43.0111,1.0,1.0,1.0
43.7,42.5167,1.0,1.0,1.0
43.75,46.0111,1.0,1.0,1.0
43.8,37.5056,1.0,1.0,1.0
43.85,30.0,1.0,1.0,1.0
43.9,43.9889,1.0,1.0,1.0
43.95,18.5056,1.0,1.0,1.0
44.0,21.4944,1.0,1.0,1.0
44.05,21.0,1.0,1.0,1.0
44.1,16.4944,1.0,1.0,1.0
44.15,27.4944,1.0,1.0,1.0
44.2,55.0,1.0,1.0,1.0
44.25,61.5056,1.0,1.0,1.0
44.3,59.4944,1.0,1.0,1.0
44.35,81.5056,1.0,1.0,1.0
44.4,99.5167,1.0,1.0,1.0
44.45,106.0,1.0,1.0,1.0
44.5,102.0111,1.0,1.0,1.0
44.55,135.5056,1.0,1.0,1.0
44.6,148.0,1.0,1.0,1.0
44.65,119.4944,1.0,1.0,1.0
44.7,99.0,1.0,1.0,1.0
44.75,95.4944,1.0,1.0,1.0
44.8,82.0,1.0,1.0,1.0
44.85,50.5056,1.0,1.0,1.0
44.9,32.0,1.0,1.0,1.0
44.95,41.4944,1.0,1.0,1.0
45.0,55.4944,1.0,1.0,1.0
45.05,72.4944,1.0,1.0,1.0
45.1,143.4944,1.0,1.0,1.0
45.15,293.0,1.0,1.0,1.0
45.2,382.0,1.0,1.0,1.0
45.25,540.9889,1.0,1.0,1.0
45.3,839.45,1.0,1.0,1.0
45.35,1092.55,1.0,1.0,1.0
45.4,1431.48,1.0,1.0,1.0
45.45,1649.47,1.0,1.0,1.0
45.5,2059.52,1.0,1.0,1.0
45.55,2465.96,1.0,1.0,1.0
45.6,2843.51,1.0,1.0,1.0
45.65,3105.46,1.0,1.0,1.0
45.7,3626.93,1.0,1.0,1.0
45.75,3903.04,1.0,1.0,1.0
45.8,4087.06,1.0,1.0,1.0
45.85,4229.49,1.0,1.0,1.0
45.9,4641.0,1.0,1.0,1.0
45.95,4533.46,1.0,1.0,1.0
46.0,4664.11,1.0,1.0,1.0
46.05,4452.83,1.0,1.0,1.0
46.1,4506.43,1.0,1.0,1.0
46.15,4219.47,1.0,1.0,1.0
46.2,3862.46,1.0,1.0,1.0
46.25,3529.46,1.0,1.0,1.0
46.3,3121.91,1.0,1.0,1.0
46.35,2684.57,1.0,1.0,1.0
46.4,2295.47,1.0,1.0,1.0
46.45,1966.51,1.0,1.0,1.0
46.5,1556.52,1.0,1.0,1.0
46.55,1216.98,1.0,1.0,1.0
46.6,927.5389,1.0,1.0,1.0
46.65,645.9889,1.0,1.0,1.0
46.7,363.5389,1.0,1.0,1.0
46.75,260.4944,1.0,1.0,1.0
46.8,178.5167,1.0,1.0,1.0
46.85,167.0,1.0,1.0,1.0
46.9,161.9889,1.0,1.0,1.0
46.95,223.9889,1.0,1.0,1.0
47.0,304.9778,1.0,1.0,1.0
47.05,392.4722,1.0,1.0,1.0
47.1,505.4944,1.0,1.0,1.0
47.15,574.0,1.0,1.0,1.0
47.2,685.0111,1.0,1.0,1.0
47.25,836.0222,1.0,1.0,1.0
47.3,941.9667,1.0,1.0,1.0
47.35,945.4944,1.0,1.0,1.0
47.4,991.5056,1.0,1.0,1.0
47.45,1061.49,1.0,1.0,1.0
47.5,1099.51,1.0,1.0,1.0
47.55,1147.03,1.0,1.0,1.0
47.6,1269.49,1.0,1.0,1.0
47.65,1422.0,1.0,1.0,1.0
47.7,1870.53,1.0,1.0,1.0
47.75,2551.41,1.0,1.0,1.0
47.8,4296.88,1.0,1.0,1.0
47.85,9479.23,1.0,1.0,1.0
47.9,46472,1.0,1.0,1.0
47.95,1913390.25,1.0,1.0,1.0
48.0,2270837.25,1.0,1.0,1.0
48.05,59564.1,1.0,1.0,1.0
48.1,10828.4,1.0,1.0,1.0
48.15,3970.53,1.0,1.0,1.0
48.2,1873.53,1.0,1.0,1.0
48.25,1101.51,1.0,1.0,1.0
48.3,683.4722,1.0,1.0,1.0
48.35,478.5167,1.0,1.0,1.0
48.4,334.0111,1.0,1.0,1.0
48.45,278.0333,1.0,1.0,1.0
48.5,219.9667,1.0,1.0,1.0
48.55,199.0111,1.0,1.0,1.0
48.6,193.0111,1.0,1.0,1.0
48.65,145.0,1.0,1.0,1.0
48.7,175.9889,1.0,1.0,1.0
48.75,135.5056,1.0,1.0,1.0
48.8,107.5056,1.0,1.0,1.0
48.85,108.0111,1.0,1.0,1.0
48.9,95.0111,1.0,1.0,1.0
48.95,87.4944,1.0,1.0,1.0
49.0,60.0,1.0,1.0,1.0
49.05,46.0,1.0,1.0,1.0
49.1,18.0,1.0,1.0,1.0
49.15,22.9889,1.0,1.0,1.0
49.2,23.0,1.0,1.0,1.0
49.25,12.5056,1.0,1.0,1.0
49.3,15.0111,1.0,1.0,1.0
49.35,20.0,1.0,1.0,1.0
49.4,25.0,1.0,1.0,1.0
49.45,20.5056,1.0,1.0,1.0
49.5,18.0111,1.0,1.0,1.0
49.55,15.4944,1.0,1.0,1.0
49.6,25.0,1.0,1.0,1.0
49.65,18.0,1.0,1.0,1.0
49.7,27.0,1.0,1.0,1.0
49.75,21.0,1.0,1.0,1.0
49.8,7.0,1.0,1.0,1.0
49.85,19.0,1.0,1.0,1.0
49.9,17.4944,1.0,1.0,1.0
49.95,19.0,1.0,1.0,1.0
50.0,22.0,1.0,1.0,1.0
50.05,18.0,1.0,1.0,1.0
50.1,10.5056,1.0,1.0,1.0
50.15,7.4944,1.0,1.0,1.0
50.2,9.0,1.0,1.0,1.0
50.25,12.4944,1.0,1.0,1.0
50.3,13.0,1.0,1.0,1.0
50.35,12.0,1.0,1.0,1.0
50.4,3.0,1.0,1.0,1.0
50.45,15.0,1.0,1.0,1.0
50.5,48.5167,1.0,1.0,1.0
50.55,11.0,1.0,1.0,1.0
50.6,20.0,1.0,1.0,1.0
50.65,20.5056,1.0,1.0,1.0
50.7,18.0,1.0,1.0,1.0
50.75,19.0,1.0,1.0,1.0
50.8,13.5056,1.0,1.0,1.0
50.85,2.4944,1.0,1.0,1.0
50.9,13.0,1.0,1.0,1.0
50.95,17.4944,1.0,1.0,1.0
51.0,6.5056,1.0,1.0,1.0
51.05,9.0,1.0,1.0,1.0
51.1,9.0,1.0,1.0,1.0
51.15,11.9889,1.0,1.0,1.0
51.2,4.0,1.0,1.0,1.0
51.25,7.0,1.0,1.0,1.0
51.3,18.4944,1.0,1.0,1.0
51.35,13.0,1.0,1.0,1.0
51.4,15.5056,1.0,1.0,1.0
51.45,14.0,1.0,1.0,1.0
51.5,14.0,1.0,1.0,1.0
51.55,12.0,1.0,1.0,1.0
51.6,3.0,1.0,1.0,1.0
51.65,11.0,1.0,1.0,1.0
51.7,17.0,1.0,1.0,1.0
51.75,9.0,1.0,1.0,1.0
51.8,11.0,1.0,1.0,1.0
51.85,9.0,1.0,1.0,1.0
51.9,14.0,1.0,1.0,1.0
51.95,6.0,1.0,1.0,1.0
52.0,9.4944,1.0,1.0,1.0
0.44,971042,1.0,1.0,1.0
0.49,1065138.5,1.0,1.0,1.0
0.54,1069938.0,1.0,1.0,1.0
0.59,1009202.0,1.0,1.0,1.0
0.64,879772,1.0,1.0,1.0
0.69,703720,1.0,1.0,1.0
0.74,520062,1.0,1.0,1.0
0.79,358485,1.0,1.0,1.0
0.84,237975,1.0,1.0,1.0
0.89,158133,1.0,1.0,1.0
0.94,107301,1.0,1.0,1.0
0.99,74757,1.0,1.0,1.0
1.04,53607.5,1.0,1.0,1.0
1.09,39922.5,1.0,1.0,1.0
1.14,31060.0,1.0,1.0,1.0
1.19,25865,1.0,1.0,1.0
1.24,22325.5,1.0,1.0,1.0
1.29,19620.502,1.0,1.0,1.0
1.34,17417.002,1.0,1.0,1.0
1.39,15975.0,1.0,1.0,1.0
1.44,14232.002,1.0,1.0,1.0
1.49,12599.002,1.0,1.0,1.0
1.54,11092.002,1.0,1.0,1.0
1.59,10000.502,1.0,1.0,1.0
1.64,8260.501,1.0,1.0,1.0
1.69,7226.0,1.0,1.0,1.0
1.74,6113.001,1.0,1.0,1.0
1.79,5133.5,1.0,1.0,1.0
1.84,4410.5,1.0,1.0,1.0
1.89,3917.0,1.0,1.0,1.0
1.94,3512,1.0,1.0,1.0
1.99,3239,1.0,1.0,1.0
2.04,2929.501,1.0,1.0,1.0
2.09,2840.5,1.0,1.0,1.0
2.14,2726.5,1.0,1.0,1.0
2.19,2607.5,1.0,1.0,1.0
2.24,2558.0,1.0,1.0,1.0
2.29,2312.5,1.0,1.0,1.0
2.34,2172,1.0,1.0,1.0
2.39,1944,1.0,1.0,1.0
2.44,1830.5,1.0,1.0,1.0
2.49,1563,1.0,1.0,1.0
2.54,1424.5,1.0,1.0,1.0
2.59,1288,1.0,1.0,1.0
2.64,1193.5,1.0,1.0,1.0
2.69,1115,1.0,1.0,1.0
2.74,1090.5,1.0,1.0,1.0
2.79,998.0,1.0,1.0,1.0
2.84,956.5001,1.0,1.0,1.0
2.89,859.9998,1.0,1.0,1.0
2.94,879.9999,1.0,1.0,1.0
2.99,871.5001,1.0,1.0,1.0
3.04,786.5002,1.0,1.0,1.0
3.09,827.4998,1.0,1.0,1.0
3.14,839.5002,1.0,1.0,1.0
3.19,773.4995,1.0,1.0,1.0
3.24,721.4999,1.0,1.0,1.0
3.29,649.4999,1.0,1.0,1.0
3.34,647.9998,1.0,1.0,1.0
3.39,617.0001,1.0,1.0,1.0
3.44,588.4998,1.0,1.0,1.0
3.49,559.5002,1.0,1.0,1.0
3.54,540.0003,1.0,1.0,1.0
3.59,523.5004,1.0,1.0,1.0
3.64,516.0001,1.0,1.0,1.0
3.69,478.0001,1.0,1.0,1.0
3.74,510.0003,1.0,1.0,1.0
3.79,480.5003,1.0,1.0,1.0
3.84,463.4998,1.0,1.0,1.0
3.89,506.5003,1.0,1.0,1.0
3.94,484.5002,1.0,1.0,1.0
3.99,488.4998,1.0,1.0,1.0
4.04,466.9996,1.0,1.0,1.0
4.09,405.5003,1.0,1.0,1.0
4.14,433.5001,1.0,1.0,1.0
4.19,412.4998,1.0,1.0,1.0
4.24,444.9999,1.0,1.0,1.0
4.29,422.0,1.0,1.0,1.0
4.34,429.0,1.0,1.0,1.0
4.39,412.4999,1.0,1.0,1.0
4.44,379.0004,1.0,1.0,1.0
4.49,384.9999,1.0,1.0,1.0
4.5,432.0002,1.0,1.0,1.0