File: XRD:XRR/SCO/22153_SCO(CL)/22153_SCO(CL)_XRD.csv
#twotheta, yobs, ycal, bkg, diff
42.0,7.0,1.0,1.0,1.0
42.05,11.4944,1.0,1.0,1.0
42.1,8.0,1.0,1.0,1.0
42.15,13.0,1.0,1.0,1.0
42.2,0.0,1.0,1.0,1.0
42.25,3.5056,1.0,1.0,1.0
42.3,4.0,1.0,1.0,1.0
42.35,2.0,1.0,1.0,1.0
42.4,10.0,1.0,1.0,1.0
42.45,11.0,1.0,1.0,1.0
42.5,7.5056,1.0,1.0,1.0
42.55,0.0,1.0,1.0,1.0
42.6,9.0,1.0,1.0,1.0
42.65,9.0,1.0,1.0,1.0
42.7,5.4944,1.0,1.0,1.0
42.75,11.0,1.0,1.0,1.0
42.8,7.4944,1.0,1.0,1.0
42.85,11.0,1.0,1.0,1.0
42.9,14.0,1.0,1.0,1.0
42.95,12.0,1.0,1.0,1.0
43.0,13.5056,1.0,1.0,1.0
43.05,15.0,1.0,1.0,1.0
43.1,15.4944,1.0,1.0,1.0
43.15,23.5056,1.0,1.0,1.0
43.2,17.0,1.0,1.0,1.0
43.25,14.4944,1.0,1.0,1.0
43.3,16.5056,1.0,1.0,1.0
43.35,21.9889,1.0,1.0,1.0
43.4,10.0,1.0,1.0,1.0
43.45,7.0,1.0,1.0,1.0
43.5,10.0,1.0,1.0,1.0
43.55,16.0,1.0,1.0,1.0
43.6,9.0,1.0,1.0,1.0
43.65,25.4944,1.0,1.0,1.0
43.7,6.0,1.0,1.0,1.0
43.75,11.0,1.0,1.0,1.0
43.8,20.5056,1.0,1.0,1.0
43.85,3.0,1.0,1.0,1.0
43.9,2.0,1.0,1.0,1.0
43.95,10.0,1.0,1.0,1.0
44.0,15.0,1.0,1.0,1.0
44.05,12.0,1.0,1.0,1.0
44.1,25.0,1.0,1.0,1.0
44.15,18.0,1.0,1.0,1.0
44.2,24.0,1.0,1.0,1.0
44.25,36.5056,1.0,1.0,1.0
44.3,32.0,1.0,1.0,1.0
44.35,59.0222,1.0,1.0,1.0
44.4,50.5056,1.0,1.0,1.0
44.45,75.0,1.0,1.0,1.0
44.5,67.0,1.0,1.0,1.0
44.55,91.0111,1.0,1.0,1.0
44.6,86.4944,1.0,1.0,1.0
44.65,84.0,1.0,1.0,1.0
44.7,73.0,1.0,1.0,1.0
44.75,68.5056,1.0,1.0,1.0
44.8,66.0,1.0,1.0,1.0
44.85,68.9889,1.0,1.0,1.0
44.9,101.5056,1.0,1.0,1.0
44.95,98.5167,1.0,1.0,1.0
45.0,167.5167,1.0,1.0,1.0
45.05,226.4944,1.0,1.0,1.0
45.1,362.4722,1.0,1.0,1.0
45.15,609.0333,1.0,1.0,1.0
45.2,854.0222,1.0,1.0,1.0
45.25,1111.55,1.0,1.0,1.0
45.3,1426.01,1.0,1.0,1.0
45.35,1774.51,1.0,1.0,1.0
45.4,2059.43,1.0,1.0,1.0
45.45,2339.94,1.0,1.0,1.0
45.5,2418.34,1.0,1.0,1.0
45.55,2515.46,1.0,1.0,1.0
45.6,2444.48,1.0,1.0,1.0
45.65,2403.64,1.0,1.0,1.0
45.7,2279.42,1.0,1.0,1.0
45.75,2012.54,1.0,1.0,1.0
45.8,1961.03,1.0,1.0,1.0
45.85,1934.89,1.0,1.0,1.0
45.9,1737.93,1.0,1.0,1.0
45.95,1657.46,1.0,1.0,1.0
46.0,1674.49,1.0,1.0,1.0
46.05,1648.44,1.0,1.0,1.0
46.1,1605.0,1.0,1.0,1.0
46.15,1620.97,1.0,1.0,1.0
46.2,1542.56,1.0,1.0,1.0
46.25,1362.07,1.0,1.0,1.0
46.3,1394.01,1.0,1.0,1.0
46.35,1278.48,1.0,1.0,1.0
46.4,1178.98,1.0,1.0,1.0
46.45,1119.56,1.0,1.0,1.0
46.5,1014.01,1.0,1.0,1.0
46.55,933.0778,1.0,1.0,1.0
46.6,923.0555,1.0,1.0,1.0
46.65,790.4611,1.0,1.0,1.0
46.7,683.4611,1.0,1.0,1.0
46.75,630.4944,1.0,1.0,1.0
46.8,523.9889,1.0,1.0,1.0
46.85,528.4944,1.0,1.0,1.0
46.9,407.9778,1.0,1.0,1.0
46.95,552.0111,1.0,1.0,1.0
47.0,359.5056,1.0,1.0,1.0
47.05,347.0,1.0,1.0,1.0
47.1,301.9889,1.0,1.0,1.0
47.15,304.4833,1.0,1.0,1.0
47.2,307.4833,1.0,1.0,1.0
47.25,290.9889,1.0,1.0,1.0
47.3,289.5167,1.0,1.0,1.0
47.35,395.5167,1.0,1.0,1.0
47.4,449.4944,1.0,1.0,1.0
47.45,491.5056,1.0,1.0,1.0
47.5,580.4722,1.0,1.0,1.0
47.55,783.4611,1.0,1.0,1.0
47.6,1067.48,1.0,1.0,1.0
47.65,1449.47,1.0,1.0,1.0
47.7,1914.97,1.0,1.0,1.0
47.75,2851.89,1.0,1.0,1.0
47.8,5115.99,1.0,1.0,1.0
47.85,13555,1.0,1.0,1.0
47.9,641694,1.0,1.0,1.0
47.95,2661568.0,1.0,1.0,1.0
48.0,3193265.0,1.0,1.0,1.0
48.05,1222428.125,1.0,1.0,1.0
48.1,27236.3,1.0,1.0,1.0
48.15,5323.06,1.0,1.0,1.0
48.2,2331.09,1.0,1.0,1.0
48.25,1280.56,1.0,1.0,1.0
48.3,758.0222,1.0,1.0,1.0
48.35,562.9889,1.0,1.0,1.0
48.4,418.9889,1.0,1.0,1.0
48.45,324.5167,1.0,1.0,1.0
48.5,270.0222,1.0,1.0,1.0
48.55,197.0,1.0,1.0,1.0
48.6,177.4833,1.0,1.0,1.0
48.65,123.5056,1.0,1.0,1.0
48.7,134.4944,1.0,1.0,1.0
48.75,138.9889,1.0,1.0,1.0
48.8,86.5056,1.0,1.0,1.0
48.85,79.4944,1.0,1.0,1.0
48.9,73.5056,1.0,1.0,1.0
48.95,58.5056,1.0,1.0,1.0
49.0,49.0,1.0,1.0,1.0
49.05,42.0,1.0,1.0,1.0
49.1,44.9889,1.0,1.0,1.0
49.15,30.4944,1.0,1.0,1.0
49.2,35.5056,1.0,1.0,1.0
49.25,19.4944,1.0,1.0,1.0
49.3,25.0,1.0,1.0,1.0
49.35,19.0,1.0,1.0,1.0
49.4,6.0,1.0,1.0,1.0
49.45,13.0,1.0,1.0,1.0
49.5,17.5056,1.0,1.0,1.0
49.55,17.4944,1.0,1.0,1.0
49.6,15.0,1.0,1.0,1.0
49.65,11.0,1.0,1.0,1.0
49.7,16.0,1.0,1.0,1.0
49.75,17.0,1.0,1.0,1.0
49.8,12.0,1.0,1.0,1.0
49.85,14.0,1.0,1.0,1.0
49.9,22.5056,1.0,1.0,1.0
49.95,19.5056,1.0,1.0,1.0
50.0,13.0,1.0,1.0,1.0
50.05,17.0,1.0,1.0,1.0
50.1,19.0,1.0,1.0,1.0
50.15,9.0,1.0,1.0,1.0
50.2,17.5056,1.0,1.0,1.0
50.25,6.4944,1.0,1.0,1.0
50.3,6.0,1.0,1.0,1.0
50.35,8.0,1.0,1.0,1.0
50.4,9.4944,1.0,1.0,1.0
50.45,4.0,1.0,1.0,1.0
50.5,11.0,1.0,1.0,1.0
50.55,4.5056,1.0,1.0,1.0
50.6,0.0,1.0,1.0,1.0
50.65,5.0,1.0,1.0,1.0
50.7,5.0,1.0,1.0,1.0
50.75,8.0,1.0,1.0,1.0
50.8,7.0,1.0,1.0,1.0
50.85,6.0,1.0,1.0,1.0
50.9,4.0,1.0,1.0,1.0
50.95,5.0,1.0,1.0,1.0
51.0,2.0,1.0,1.0,1.0
51.05,6.0,1.0,1.0,1.0
51.1,2.0,1.0,1.0,1.0
51.15,0.4944,1.0,1.0,1.0
51.2,2.0,1.0,1.0,1.0
51.25,2.0,1.0,1.0,1.0
51.3,11.0,1.0,1.0,1.0
51.35,11.5056,1.0,1.0,1.0
51.4,10.0,1.0,1.0,1.0
51.45,10.0,1.0,1.0,1.0
51.5,7.0,1.0,1.0,1.0
51.55,5.0,1.0,1.0,1.0
51.6,3.0,1.0,1.0,1.0
51.65,15.0,1.0,1.0,1.0
51.7,10.0,1.0,1.0,1.0
51.75,6.0,1.0,1.0,1.0
51.8,2.0,1.0,1.0,1.0
51.85,17.0,1.0,1.0,1.0
51.9,7.0,1.0,1.0,1.0
51.95,2.0,1.0,1.0,1.0
52.0,8.0,1.0,1.0,1.0
0.44,380158.5,1.0,1.0,1.0
0.49,435546.0,1.0,1.0,1.0
0.54,478026.5,1.0,1.0,1.0
0.59,498245.5,1.0,1.0,1.0
0.64,485008.5,1.0,1.0,1.0
0.69,411157,1.0,1.0,1.0
0.74,249645,1.0,1.0,1.0
0.79,90416,1.0,1.0,1.0
0.84,72278.5,1.0,1.0,1.0
0.89,73913.5,1.0,1.0,1.0
0.94,52173.5,1.0,1.0,1.0
0.99,27616.5,1.0,1.0,1.0
1.04,12127.501,1.0,1.0,1.0
1.09,7401,1.0,1.0,1.0
1.14,9273.999,1.0,1.0,1.0
1.19,12103.0,1.0,1.0,1.0
1.24,12607.499,1.0,1.0,1.0
1.29,10204.499,1.0,1.0,1.0
1.34,7107.001,1.0,1.0,1.0
1.39,4244,1.0,1.0,1.0
1.44,2572.0,1.0,1.0,1.0
1.49,2101.5,1.0,1.0,1.0
1.54,2304.5,1.0,1.0,1.0
1.59,2603.5,1.0,1.0,1.0
1.64,2742,1.0,1.0,1.0
1.69,2631.5,1.0,1.0,1.0
1.74,2395,1.0,1.0,1.0
1.79,1922.5,1.0,1.0,1.0
1.84,1564.0,1.0,1.0,1.0
1.89,1259,1.0,1.0,1.0
1.94,998.5002,1.0,1.0,1.0
1.99,858.4999,1.0,1.0,1.0
2.04,885.4998,1.0,1.0,1.0
2.09,963.5002,1.0,1.0,1.0
2.14,1051.5,1.0,1.0,1.0
2.19,1183,1.0,1.0,1.0
2.24,1143,1.0,1.0,1.0
2.29,1064,1.0,1.0,1.0
2.34,929.4996,1.0,1.0,1.0
2.39,715.5002,1.0,1.0,1.0
2.44,574.0,1.0,1.0,1.0
2.49,565.0,1.0,1.0,1.0
2.54,606.0001,1.0,1.0,1.0
2.59,699.0,1.0,1.0,1.0
2.64,717.5002,1.0,1.0,1.0
2.69,792.9998,1.0,1.0,1.0
2.74,740.4998,1.0,1.0,1.0
2.79,644.5002,1.0,1.0,1.0
2.84,569.0,1.0,1.0,1.0
2.89,518.5002,1.0,1.0,1.0
2.94,412.5004,1.0,1.0,1.0
2.99,475.5001,1.0,1.0,1.0
3.04,479.4998,1.0,1.0,1.0
3.09,485.4998,1.0,1.0,1.0
3.14,481.5002,1.0,1.0,1.0
3.19,503.0002,1.0,1.0,1.0
3.24,492.9999,1.0,1.0,1.0
3.29,465.5006,1.0,1.0,1.0
3.34,431.9998,1.0,1.0,1.0
3.39,408.5001,1.0,1.0,1.0
3.44,454.9997,1.0,1.0,1.0
3.49,430.9999,1.0,1.0,1.0
3.54,431.0001,1.0,1.0,1.0
3.59,370.5002,1.0,1.0,1.0
3.64,459.4998,1.0,1.0,1.0
3.69,436.4998,1.0,1.0,1.0
3.74,452.0,1.0,1.0,1.0
3.79,462.0003,1.0,1.0,1.0
3.84,450.0001,1.0,1.0,1.0
3.89,421.9997,1.0,1.0,1.0
3.94,380.9999,1.0,1.0,1.0
3.99,404.5001,1.0,1.0,1.0
4.04,379.4996,1.0,1.0,1.0
4.09,444.0003,1.0,1.0,1.0
4.14,443.5003,1.0,1.0,1.0
4.19,433.5006,1.0,1.0,1.0
4.24,383.0,1.0,1.0,1.0
4.29,429.4999,1.0,1.0,1.0
4.34,374.4998,1.0,1.0,1.0
4.39,393.0001,1.0,1.0,1.0
4.44,408.5002,1.0,1.0,1.0
4.49,386.9995,1.0,1.0,1.0
4.5,408.5004,1.0,1.0,1.0