File: XRD:XRR/SCO/22103_S(CT)L/22103_not_annealed_001_XRD_2-Theta_Omega.asc
*TYPE		=  Raw
*CLASS		=  ASCII CLASS
*SAMPLE		=
*COMMENT	=
*FNAME		=  22103_not_annealed_001_XRD_2-Theta_Omega.asc
*DATE		=  01-Jul-22 05:58

*GROUP_COUNT	=  1
*GONIO		=  SmartLab(In-plane), 0.000000
*ATTACHMENT	=  Z-Phi Stage
*ASC		=  0, 0, 0.000000, 0.000000
*I_MONOCHRO	=  Ge(220)x2, 0.000000
*FILTER		=  None
*C_MONOCHRO	=  None, 0.000000
*SLIT_NAME	=  0, Incident slit
*SLIT_NAME	=  1, Receiving slit # 1
*SLIT_NAME	=  2, Receiving slit # 2
*COUNTER	=  D/teX Ultra 250, 0
*POS_FORMAT	=  0
*SCAN_AXIS	=  2Theta/Omega
*MEAS_MODE	=  Continuous Scanning
*TARGET		=  29
*XRAY_CHAR	=  K-ALPHA1
*WAVE_LENGTH1	=  1.54059
*WAVE_LENGTH2	=  1.54441
*THICKNESS	=  0, 0.000000
*MU		=  0, 0.000000
*SCAN_MODE	=  2Theta/Omega
*SPEED_DIM	=  sec./step
*XUNIT		=  deg.
*YUNIT		=  counts
*SCALE_MODE	=  1
*REP_COUNT	=  0
*SE_COUNT	=  0
*STD_MATERIAL	=  Unknown, Unknown, 0.000000, 0.000000, 0.000000, 0.000000, 0.000000, 0.000000
*LATT_CONS	=  0, Unknown, Unknown, 0.000000, 0.000000, 0.000000, 0.000000, 0.000000, 0.000000
*SEC_COUNT	=  1
*TSPEC_SIZE	=  0
*EXTRA_SIZE	=  0
*MEMO		=

*BEGIN
*GROUP		=  0
*START		=  16
*STOP		=  30
*STEP		=  0.01
*OFFSET		=  -0.017900
*SPEED		=  31.5375
*SLIT_SPEC	=  0, 0.400mm, 0.4, 0.000000
*SLIT_SPEC	=  1, 0.400mm, 0.4, 0.000000
*SLIT_SPEC	=  2, 0.400mm, 0.4, 0.000000
*KV		=  40
*MA		=  30
*LOW		=  0.000000
*HIGH		=  0.000000
*CTEMPER	=  0, 0.000000
*CTEMPER	=  1, 0.000000
*CTEMPER	=  2, 0.000000
*PAREX		=  0, 0.000000
*PAREX		=  1, 0.000000
*PAREX		=  2, 0.000000
*PAREX		=  3, 0.000000
*PAREX		=  4, 0.000000
*PAREX		=  5, 0.000000
*PAREX		=  6, 0.000000
*PAREX		=  7, 0.000000
*PAREX		=  8, 0.000000
*PAREX		=  9, 0.000000
*PAREX		=  10, 0.000000
*PAREX		=  11, 0.000000
*PAREX		=  12, 0.000000
*PAREX		=  13, 0.000000
*PAREX		=  14, 0.000000
*PAREX		=  15, 0.000000
*FULL_SCALE	=  1130236.6
*INDEX		=  0, 0, 0
*COUNT		=  1401
3, 9.49921, 5.50079, 4
5.49921, 6.50079, 2, 3
0.000000, 4, 3.49921, 7
2, 0.000000, 14, 3.49921
0.000000, 0.499214, 3.50079, 10
0.000000, 2, 0.000000, 4
6, 2, 2, 4
4, 6, 7, 0.000000
4, 7, 2, 6
9, 7, 8, 0.000000
0.000000, 2, 0.000000, 4
2, 2, 0.000000, 4
3, 0.000000, 0.000000, 6
7, 2, 8, 11
5.50079, 2, 0.000000, 0.000000
4, 1.49921, 2.50079, 6
10, 0.000000, 6, 8.49921
0.000000, 6, 7, 11
0.000000, 0.000000, 3, 2
3, 6, 2, 3
0.000000, 4, 7, 3
4, 4, 0.000000, 10
15, 9, 2, 2
8, 6, 0.000000, 5
6.49921, 11.5008, 9, 0.000000
14.4992, 16.5008, 6, 4
4, 5, 2.49921, 8.50079
4, 2, 2, 4
5, 4, 2, 2
13, 9, 4, 10
2, 5, 8, 2
9, 0.500786, 5, 7
0.000000, 3, 0.000000, 9
2, 2, 5, 7
9.49921, 1.50079, 2, 2
2, 7, 9, 0.000000
4, 6, 6, 10
10, 4, 3, 3
8, 0.499214, 9.50079, 2
13.5008, 5, 2, 4
2, 8, 6, 10
4, 13, 0.000000, 6
6, 2, 8, 0.000000
6, 3.49921, 2.50079, 7.49921
0.000000, 7, 7, 5
7, 4.49921, 5.50079, 8
5, 6, 2, 0.000000
4, 7, 2, 13
2, 1, 3, 2
8, 4, 4, 0.000000
2, 2, 5, 0.000000
6, 3.49921, 9.50079, 7.99529
6, 2, 3, 8
2, 4, 2, 0.000000
4, 5, 9, 2
4, 6, 2, 2
9, 2, 5, 2
5, 6, 0.000000, 4
0.000000, 2, 4, 6
2, 7, 4, 6
4, 3, 7, 7
7, 3, 19, 6
0.000000, 2, 4, 10
3, 5, 2, 4
10, 19, 6, 7
4.49921, 5.50079, 3, 6
7.50079, 4, 5, 4
14.4992, 9.50079, 5, 7
7, 12, 7, 6
9, 6, 11, 12
4.50079, 9, 5, 2
6, 6.50079, 6, 0.000000
4.99843, 19.0016, 16, 12
16, 13, 10, 11
21.4992, 15.5008, 12.4992, 14.5008
10, 11, 8, 26
63.5008, 59, 92, 101.499
165, 229.002, 200, 228.997
348, 394.498, 396.504, 421.995
573.991, 580.501, 594.003, 584.998
619.499, 724.502, 707, 661.997
668.505, 723.003, 631.997, 668.498
556.498, 553.498, 544.504, 523.002
451.496, 373.005, 404.499, 372.499
301.994, 293.501, 283.006, 280.997
241.501, 271.501, 260.997, 294.501
235.997, 272.501, 270.501, 321.501
349, 383.998, 343.005, 389.995
411.995, 495.998, 494.002, 470.501
592.505, 634.997, 655.501, 719.003
1061.5, 1174.5, 1289, 1400.49
2616.49, 3029.99, 3746, 4412.98
20064.4, 30841.8, 48340.1, 77787.9
2758493.8, 8771997, 20550458, 27676624
343007, 189446, 107408, 63815
9068.56, 6757.53, 5392.51, 4237.01
1760.52, 1569.49, 1381.5, 1217.5
818.002, 769.498, 698.501, 632.504
422.003, 405.499, 378.998, 367.998
289.499, 220.002, 257.997, 213.506
222.002, 162.496, 177, 181.002
141.998, 174.002, 130.998, 160.998
122.499, 136.002, 114, 136.002
85.5008, 105.501, 92.9984, 65.4992
56.4992, 62.5008, 67.9984, 65.5008
64.5008, 49.4992, 57, 66.4992
71.9984, 75.5008, 61.5008, 42.4976
49.5008, 34, 39, 49.9984
32, 23, 28.9984, 35.5008
29.5008, 27.4992, 19.5008, 28
26, 12, 25.4992, 24.5008
16.5008, 27, 27, 12
12.4992, 13.5008, 6.99843, 16.0016
23.5008, 26.4992, 19.5008, 14
20.5008, 24.4992, 25.5008, 14.4992
20, 13.5008, 14, 13.4992
25, 12, 8, 6.49921
6, 8, 15, 13
14, 17, 1.49921, 5.50079
12, 20.5008, 13.9984, 8.00157
12, 18, 5, 4
9, 7, 25, 7
8, 4, 4, 8
13, 5, 6, 9
6, 4, 2, 6
6.49921, 5.50079, 13, 4
4, 10, 7, 6
8, 11, 9, 12.9984
12.4992, 7.50079, 8, 15
17.5008, 1, 6, 10
6, 5, 2.49921, 4.50079
8, 5, 2, 9
5, 0.000000, 9, 14
2, 0.000000, 0.000000, 8
8, 6, 0.000000, 2
7, 2, 2, 7
13, 8, 4, 4
5, 9, 5, 0.000000
6, 6.49921, 4.50079, 2.99843
4, 12.4992, 5.50079, 0.000000
8, 13, 6, 5
3, 12, 6, 8
10, 11, 2, 7
8, 0.499214, 1.50079, 6
8.00157, 2, 7, 6
0.000000, 2, 4, 6.49921
9, 2, 4, 5
2, 3, 0.000000, 8
10, 0.000000, 2, 0.000000
10, 2, 5, 2
0.000000, 6, 4, 13
3, 5.99843, 6.00157, 2
21, 6, 3, 8
2, 6, 4, 4
8, 7, 4, 6
3, 2, 2, 8
3, 0.000000, 7, 7
0.000000, 2, 0.000000, 1
2, 2, 0.000000, 2
0.000000, 4, 3, 4
5, 0.000000, 6, 2
3, 3, 8, 4
5, 10, 4.49921, 3.50079
3, 6, 0.000000, 2
3, 4, 3, 2
6, 7, 13, 4
5, 3.49921, 1.50079, 0.000000
5, 5, 2, 6
0.000000, 4, 2, 0.000000
3, 0.000000, 2, 2
2.50079, 2, 0.000000, 0.000000
0.000000, 2, 2, 4
3.49921, 7, 2, 2.50079
8, 4, 2, 5
6, 0.000000, 5, 6.49921
7
*END

*EOF