File: XRD:XRR/SCO/22103_S(CT)L/22103_not_annealed_XRR_2-Theta_Omega.asc
*TYPE		=  Raw
*CLASS		=  ASCII CLASS
*SAMPLE		=
*COMMENT	=
*FNAME		=  22103_not_annealed_XRR_2-Theta_Omega.asc
*DATE		=  01-Jul-22 11:21

*GROUP_COUNT	=  1
*GONIO		=  SmartLab(In-plane), 0.000000
*ATTACHMENT	=  Z-Phi Stage
*ASC		=  0, 0, 0.000000, 0.000000
*I_MONOCHRO	=  Ge(220)x2, 0.000000
*FILTER		=  None
*C_MONOCHRO	=  None, 0.000000
*SLIT_NAME	=  0, Incident slit
*SLIT_NAME	=  1, Receiving slit # 1
*SLIT_NAME	=  2, Receiving slit # 2
*COUNTER	=  D/teX Ultra 250, 0
*POS_FORMAT	=  0
*SCAN_AXIS	=  2Theta/Omega
*MEAS_MODE	=  Continuous Scanning
*TARGET		=  29
*XRAY_CHAR	=  K-ALPHA1
*WAVE_LENGTH1	=  1.54059
*WAVE_LENGTH2	=  1.54441
*THICKNESS	=  0, 0.000000
*MU		=  0, 0.000000
*SCAN_MODE	=  2Theta/Omega
*SPEED_DIM	=  sec./step
*XUNIT		=  deg.
*YUNIT		=  counts
*SCALE_MODE	=  1
*REP_COUNT	=  0
*SE_COUNT	=  0
*STD_MATERIAL	=  Unknown, Unknown, 0.000000, 0.000000, 0.000000, 0.000000, 0.000000, 0.000000
*LATT_CONS	=  0, Unknown, Unknown, 0.000000, 0.000000, 0.000000, 0.000000, 0.000000, 0.000000
*SEC_COUNT	=  1
*TSPEC_SIZE	=  0
*EXTRA_SIZE	=  0
*MEMO		=

*BEGIN
*GROUP		=  0
*START		=  0.4
*STOP		=  4.5
*STEP		=  0.01
*OFFSET		=  -0.013800
*SPEED		=  16.6251
*SLIT_SPEC	=  0, 1.000mm, 1, 0.000000
*SLIT_SPEC	=  1, 1.000mm, 1, 0.000000
*SLIT_SPEC	=  2, 1.000mm, 1, 0.000000
*KV		=  40
*MA		=  30
*LOW		=  0.000000
*HIGH		=  0.000000
*CTEMPER	=  0, 0.000000
*CTEMPER	=  1, 0.000000
*CTEMPER	=  2, 0.000000
*PAREX		=  0, 0.000000
*PAREX		=  1, 0.000000
*PAREX		=  2, 0.000000
*PAREX		=  3, 0.000000
*PAREX		=  4, 0.000000
*PAREX		=  5, 0.000000
*PAREX		=  6, 0.000000
*PAREX		=  7, 0.000000
*PAREX		=  8, 0.000000
*PAREX		=  9, 0.000000
*PAREX		=  10, 0.000000
*PAREX		=  11, 0.000000
*PAREX		=  12, 0.000000
*PAREX		=  13, 0.000000
*PAREX		=  14, 0.000000
*PAREX		=  15, 0.000000
*FULL_SCALE	=  156522
*INDEX		=  0, 0, 0
*COUNT		=  411
1639566, 1681499, 1717842, 1759401.5
1796806.5, 1836300, 1871194.5, 1909461.5
1943359.5, 1973302.5, 2006214, 2036401.5
2062405.5, 2087192.9, 2108280, 2123288
2134497.5, 2139788.5, 2132272.5, 2120530.5
2096963, 2059575, 2008633.5, 1939225.6
1847763.6, 1734667.1, 1595480.6, 1433067.1
1251500.3, 1052146.3, 857084, 689600
569448, 500254, 465432, 448563
433075, 409938, 372396, 322854
270276, 220181, 176198, 141500
115611, 98259, 89089.5, 84486.5
84889.5, 87205.5, 90068, 92964.5
95929, 95355, 94817, 92002.5
87784, 81843, 75280, 68899
60422, 53476, 46072, 39828
34051, 29635, 25427, 22654.5
21017, 19474.5, 18847.5, 19307
19428, 20336, 21267, 22068.5
22918.5, 23682, 23851.5, 23875.5
23855, 23393, 22180.5, 21307.5
19839, 18252, 16907.5, 15347
13726.5, 12174, 10722.5, 9534.5
8252, 7393.5, 6894, 6486
6081, 6131, 6403, 6380
6733.5, 7155, 7623.5, 8206.5
8651.5, 8894.5, 9571.5, 9662
9803, 9659.5, 9878.5, 9439
9358.5, 8822, 8525, 8063.5
7348.5, 6795, 6148, 5554
4828, 4351, 3950, 3436
3210.5, 3019.5, 2749.5, 2634
2633, 2676, 2728.5, 2967
2939, 3272.5, 3511, 3681.5
3927, 4126, 4276, 4414
4482, 4399, 4439, 4425.5
4394, 4102.5, 4049, 3859
3599, 3342.5, 3137, 2810
2515, 2317, 2220.5, 1958
1765.5, 1708.5, 1429.5, 1487
1472.5, 1465.5, 1516, 1535.5
1540.5, 1681, 1835, 1832.5
1946, 2037, 2105, 2266.5
2306.5, 2260, 2285, 2315.5
2374.5, 2218, 2074, 1943
1895.5, 1885.5, 1674, 1558.5
1496.5, 1405.5, 1346.5, 1166
1073.5, 1023, 945.5, 889.5
924.501, 856.499, 945, 911.5
950.5, 1029.5, 1056.5, 1081
1124, 1260, 1304, 1317
1392, 1392, 1332.5, 1470
1400, 1407, 1407.5, 1268.5
1284, 1190.5, 1178, 1129.5
1022.5, 1025.5, 866, 892.5
832, 831.5, 833.5, 755
729, 671, 693.5, 709
742.5, 817.5, 809, 789
872, 848, 879, 913.999
952.001, 896.5, 978, 910.5
906, 915.501, 919.5, 808.5
864.5, 830, 751, 701
654, 607.5, 593.001, 561.5
470, 481.5, 472.5, 440
442.5, 413, 427, 428
447.5, 436.5, 438.5, 466
434, 458, 456, 515
508, 457.5, 514.5, 539
539.5, 514, 509, 543
508, 459, 407, 458
474, 359.5, 382, 369.5
371, 357.5, 306, 334
311.5, 328, 274.5, 306
292.5, 317, 320, 316.5
342, 371, 388.5, 332
360.5, 364.5, 372.5, 394
374, 390, 381, 368.5
349.5, 358, 379, 397.5
368, 339, 307.5, 326.5
340, 285, 304.5, 346
312.5, 294.5, 323, 302.5
275.5, 311.5, 308, 307
340.5, 272, 318.5, 340
347.5, 356.5, 355.5, 354.5
315.5, 336.5, 307.5, 342
326, 328.5, 330, 322
294, 291.5, 282, 264.5
233, 264.5, 221.5, 233
230, 242, 234, 230
221.5, 221, 213.5, 245
209.5, 204, 238, 208.5
217.5, 245, 246.5, 245.5
199, 225.5, 228, 242
244.5, 234, 238, 252
244, 254.5, 187, 210
238, 255.5, 196.5, 243
196.5, 228, 229.5, 215
207, 214, 232.5, 216
203.5, 218, 214.5, 198.5
242.5, 198.5, 202, 226.5
216.5, 234.5, 205, 220
254, 240.5, 232.5, 216
240.5, 208, 230
*END

*EOF