File: XRD:XRR/SCO/22103_S(CT)L/22103_not_annealed_002_XRD.csv
#twotheta, yobs, ycal, bkg, diff
42.0,1.0,1.0,1.0,1.0
42.04,4.0,1.0,1.0,1.0
42.08,5.0,1.0,1.0,1.0
42.12,4.0,1.0,1.0,1.0
42.16,0.0,1.0,1.0,1.0
42.2,2.0,1.0,1.0,1.0
42.24,0.0,1.0,1.0,1.0
42.28,3.0,1.0,1.0,1.0
42.32,4.0,1.0,1.0,1.0
42.36,0.0,1.0,1.0,1.0
42.4,3.0,1.0,1.0,1.0
42.44,4.0,1.0,1.0,1.0
42.48,4.0,1.0,1.0,1.0
42.52,6.0,1.0,1.0,1.0
42.56,2.0,1.0,1.0,1.0
42.6,0.0,1.0,1.0,1.0
42.64,0.0,1.0,1.0,1.0
42.68,0.0,1.0,1.0,1.0
42.72,0.0,1.0,1.0,1.0
42.76,10.0,1.0,1.0,1.0
42.8,8.0,1.0,1.0,1.0
42.84,2.5056,1.0,1.0,1.0
42.88,2.0,1.0,1.0,1.0
42.92,8.4944,1.0,1.0,1.0
42.96,5.0,1.0,1.0,1.0
43.0,7.0,1.0,1.0,1.0
43.04,0.0,1.0,1.0,1.0
43.08,5.0,1.0,1.0,1.0
43.12,10.9889,1.0,1.0,1.0
43.16,9.0,1.0,1.0,1.0
43.2,0.0,1.0,1.0,1.0
43.24,5.0,1.0,1.0,1.0
43.28,8.0,1.0,1.0,1.0
43.32,12.0,1.0,1.0,1.0
43.36,7.5056,1.0,1.0,1.0
43.4,19.4944,1.0,1.0,1.0
43.44,23.0,1.0,1.0,1.0
43.48,17.0,1.0,1.0,1.0
43.52,21.0,1.0,1.0,1.0
43.56,17.0,1.0,1.0,1.0
43.6,20.4944,1.0,1.0,1.0
43.64,30.0,1.0,1.0,1.0
43.68,33.5056,1.0,1.0,1.0
43.72,32.4944,1.0,1.0,1.0
43.76,10.0,1.0,1.0,1.0
43.8,22.5056,1.0,1.0,1.0
43.84,28.0,1.0,1.0,1.0
43.88,24.0,1.0,1.0,1.0
43.92,4.0,1.0,1.0,1.0
43.96,26.0,1.0,1.0,1.0
44.0,34.0,1.0,1.0,1.0
44.04,16.9889,1.0,1.0,1.0
44.08,17.5056,1.0,1.0,1.0
44.12,8.5056,1.0,1.0,1.0
44.16,6.0,1.0,1.0,1.0
44.2,20.0,1.0,1.0,1.0
44.24,17.5056,1.0,1.0,1.0
44.28,11.5056,1.0,1.0,1.0
44.32,12.0,1.0,1.0,1.0
44.36,19.0,1.0,1.0,1.0
44.4,28.4833,1.0,1.0,1.0
44.44,30.4944,1.0,1.0,1.0
44.48,24.5056,1.0,1.0,1.0
44.52,22.0,1.0,1.0,1.0
44.56,38.0,1.0,1.0,1.0
44.6,27.0,1.0,1.0,1.0
44.64,41.0111,1.0,1.0,1.0
44.68,56.0,1.0,1.0,1.0
44.72,38.0,1.0,1.0,1.0
44.76,44.0,1.0,1.0,1.0
44.8,68.9889,1.0,1.0,1.0
44.84,67.9889,1.0,1.0,1.0
44.88,96.0111,1.0,1.0,1.0
44.92,107.5056,1.0,1.0,1.0
44.96,154.9667,1.0,1.0,1.0
45.0,189.4944,1.0,1.0,1.0
45.04,236.0222,1.0,1.0,1.0
45.08,311.0111,1.0,1.0,1.0
45.12,323.5056,1.0,1.0,1.0
45.16,400.4944,1.0,1.0,1.0
45.2,491.9667,1.0,1.0,1.0
45.24,689.9889,1.0,1.0,1.0
45.28,870.8778,1.0,1.0,1.0
45.32,1088.99,1.0,1.0,1.0
45.36,1346.47,1.0,1.0,1.0
45.4,1564.49,1.0,1.0,1.0
45.44,1779.0,1.0,1.0,1.0
45.48,1986.56,1.0,1.0,1.0
45.52,2107.94,1.0,1.0,1.0
45.56,2277.08,1.0,1.0,1.0
45.6,2132.06,1.0,1.0,1.0
45.64,2017.55,1.0,1.0,1.0
45.68,1985.96,1.0,1.0,1.0
45.72,1846.03,1.0,1.0,1.0
45.76,1865.97,1.0,1.0,1.0
45.8,1904.52,1.0,1.0,1.0
45.84,1911.57,1.0,1.0,1.0
45.88,1981.46,1.0,1.0,1.0
45.92,2169.13,1.0,1.0,1.0
45.96,2114.53,1.0,1.0,1.0
46.0,2014.46,1.0,1.0,1.0
46.04,1914.44,1.0,1.0,1.0
46.08,1657.08,1.0,1.0,1.0
46.12,1326.98,1.0,1.0,1.0
46.16,1044.06,1.0,1.0,1.0
46.2,761.4944,1.0,1.0,1.0
46.24,498.4944,1.0,1.0,1.0
46.28,338.9778,1.0,1.0,1.0
46.32,244.0,1.0,1.0,1.0
46.36,257.4833,1.0,1.0,1.0
46.4,211.5056,1.0,1.0,1.0
46.44,221.9778,1.0,1.0,1.0
46.48,222.5167,1.0,1.0,1.0
46.52,182.0111,1.0,1.0,1.0
46.56,154.4944,1.0,1.0,1.0
46.6,143.0111,1.0,1.0,1.0
46.64,68.0,1.0,1.0,1.0
46.68,94.9778,1.0,1.0,1.0
46.72,100.0111,1.0,1.0,1.0
46.76,101.9889,1.0,1.0,1.0
46.8,116.5056,1.0,1.0,1.0
46.84,148.0222,1.0,1.0,1.0
46.88,135.5056,1.0,1.0,1.0
46.92,135.0111,1.0,1.0,1.0
46.96,112.9778,1.0,1.0,1.0
47.0,118.9889,1.0,1.0,1.0
47.04,86.4833,1.0,1.0,1.0
47.08,112.9889,1.0,1.0,1.0
47.12,99.0,1.0,1.0,1.0
47.16,119.5167,1.0,1.0,1.0
47.2,139.5278,1.0,1.0,1.0
47.24,170.0,1.0,1.0,1.0
47.28,198.9889,1.0,1.0,1.0
47.32,201.4944,1.0,1.0,1.0
47.36,224.9889,1.0,1.0,1.0
47.4,310.5278,1.0,1.0,1.0
47.44,368.0111,1.0,1.0,1.0
47.48,450.9778,1.0,1.0,1.0
47.52,556.4944,1.0,1.0,1.0
47.56,634.0555,1.0,1.0,1.0
47.6,790.4944,1.0,1.0,1.0
47.64,963.0111,1.0,1.0,1.0
47.68,1290.54,1.0,1.0,1.0
47.72,1892.94,1.0,1.0,1.0
47.76,3327.01,1.0,1.0,1.0
47.8,6919.77,1.0,1.0,1.0
47.84,20451.3,1.0,1.0,1.0
47.88,71084.6,1.0,1.0,1.0
47.92,221716.625,1.0,1.0,1.0
47.96,767135.875,1.0,1.0,1.0
48.0,17946086.0,1.0,1.0,1.0
48.04,821690.25,1.0,1.0,1.0
48.08,83763.75,1.0,1.0,1.0
48.12,22366.1,1.0,1.0,1.0
48.16,7707.79,1.0,1.0,1.0
48.2,3085.1,1.0,1.0,1.0
48.24,1503.53,1.0,1.0,1.0
48.28,926.4944,1.0,1.0,1.0
48.32,570.5278,1.0,1.0,1.0
48.36,459.9889,1.0,1.0,1.0
48.4,352.0,1.0,1.0,1.0
48.44,250.0222,1.0,1.0,1.0
48.48,212.0,1.0,1.0,1.0
48.52,199.4722,1.0,1.0,1.0
48.56,129.0,1.0,1.0,1.0
48.6,95.0111,1.0,1.0,1.0
48.64,117.0,1.0,1.0,1.0
48.68,54.5056,1.0,1.0,1.0
48.72,65.4944,1.0,1.0,1.0
48.76,64.5056,1.0,1.0,1.0
48.8,72.0,1.0,1.0,1.0
48.84,52.4944,1.0,1.0,1.0
48.88,49.4944,1.0,1.0,1.0
48.92,43.9889,1.0,1.0,1.0
48.96,30.0,1.0,1.0,1.0
49.0,20.4944,1.0,1.0,1.0
49.04,21.0,1.0,1.0,1.0
49.08,17.0,1.0,1.0,1.0
49.12,18.0,1.0,1.0,1.0
49.16,13.4944,1.0,1.0,1.0
49.2,9.0,1.0,1.0,1.0
49.24,15.4944,1.0,1.0,1.0
49.28,17.0,1.0,1.0,1.0
49.32,10.0,1.0,1.0,1.0
49.36,21.0,1.0,1.0,1.0
49.4,7.0,1.0,1.0,1.0
49.44,9.5056,1.0,1.0,1.0
49.48,20.5056,1.0,1.0,1.0
49.52,8.0,1.0,1.0,1.0
49.56,9.0,1.0,1.0,1.0
49.6,11.0,1.0,1.0,1.0
49.64,13.0,1.0,1.0,1.0
49.68,2.4944,1.0,1.0,1.0
49.72,9.4944,1.0,1.0,1.0
49.76,2.0,1.0,1.0,1.0
49.8,4.0,1.0,1.0,1.0
49.84,3.0,1.0,1.0,1.0
49.88,8.5056,1.0,1.0,1.0
49.92,7.4944,1.0,1.0,1.0
49.96,3.0,1.0,1.0,1.0
50.0,3.0,1.0,1.0,1.0
50.04,7.0,1.0,1.0,1.0
50.08,7.0111,1.0,1.0,1.0
50.12,6.0,1.0,1.0,1.0
50.16,7.0,1.0,1.0,1.0
50.2,6.0,1.0,1.0,1.0
50.24,1.0,1.0,1.0,1.0
50.28,5.0,1.0,1.0,1.0
50.32,2.5056,1.0,1.0,1.0
50.36,6.0,1.0,1.0,1.0
50.4,0.0,1.0,1.0,1.0
50.44,2.4944,1.0,1.0,1.0
50.48,3.0,1.0,1.0,1.0
50.52,4.0,1.0,1.0,1.0
50.56,0.5056,1.0,1.0,1.0
50.6,3.0,1.0,1.0,1.0
50.64,8.0,1.0,1.0,1.0
50.68,10.0,1.0,1.0,1.0
50.72,14.0,1.0,1.0,1.0
50.76,8.0,1.0,1.0,1.0
50.8,3.0,1.0,1.0,1.0
50.84,2.0,1.0,1.0,1.0
50.88,1.5056,1.0,1.0,1.0
50.92,3.0,1.0,1.0,1.0
50.96,2.0,1.0,1.0,1.0
51.0,2.0,1.0,1.0,1.0
51.04,0.0,1.0,1.0,1.0
51.08,0.0,1.0,1.0,1.0
51.12,2.0,1.0,1.0,1.0
51.16,0.0,1.0,1.0,1.0
51.2,2.0,1.0,1.0,1.0
51.24,0.0,1.0,1.0,1.0
51.28,4.0,1.0,1.0,1.0
51.32,4.0,1.0,1.0,1.0
51.36,2.0,1.0,1.0,1.0
51.4,1.0,1.0,1.0,1.0
51.44,8.0,1.0,1.0,1.0
51.48,4.0,1.0,1.0,1.0
51.52,4.0,1.0,1.0,1.0
51.56,0.0,1.0,1.0,1.0
51.6,3.0,1.0,1.0,1.0
51.64,0.0,1.0,1.0,1.0
51.68,0.0,1.0,1.0,1.0
51.72,0.0,1.0,1.0,1.0
51.76,0.0,1.0,1.0,1.0
51.8,4.0,1.0,1.0,1.0
51.84,3.0,1.0,1.0,1.0
51.88,2.0,1.0,1.0,1.0
51.92,6.0,1.0,1.0,1.0
51.96,2.0,1.0,1.0,1.0
52.0,2.0,1.0,1.0,1.0