File: XRD:XRR/SCO/22103_S(CT)L/22103_not_annealed_001_XRD.csv
#twotheta, yobs, ycal, bkg, diff
16.0,3.0,1.0,1.0,1.0
16.05,13.0,1.0,1.0,1.0
16.1,2.0,1.0,1.0,1.0
16.15,3.0,1.0,1.0,1.0
16.2,6.5008,1.0,1.0,1.0
16.25,0.0,1.0,1.0,1.0
16.3,4.0,1.0,1.0,1.0
16.35,10.0,1.0,1.0,1.0
16.4,0.0,1.0,1.0,1.0
16.45,0.0,1.0,1.0,1.0
16.5,2.0,1.0,1.0,1.0
16.55,3.0,1.0,1.0,1.0
16.6,0.0,1.0,1.0,1.0
16.65,7.0,1.0,1.0,1.0
16.7,0.0,1.0,1.0,1.0
16.75,0.0,1.0,1.0,1.0
16.8,0.0,1.0,1.0,1.0
16.85,4.0,1.0,1.0,1.0
16.9,0.0,1.0,1.0,1.0
16.95,2.0,1.0,1.0,1.0
17.0,1.0,1.0,1.0,1.0
17.05,2.0,1.0,1.0,1.0
17.1,3.0,1.0,1.0,1.0
17.15,0.0,1.0,1.0,1.0
17.2,4.0,1.0,1.0,1.0
17.25,9.0,1.0,1.0,1.0
17.3,6.0,1.0,1.0,1.0
17.35,8.0,1.0,1.0,1.0
17.4,6.0,1.0,1.0,1.0
17.45,0.0,1.0,1.0,1.0
17.5,5.0,1.0,1.0,1.0
17.55,3.0,1.0,1.0,1.0
17.6,0.0,1.0,1.0,1.0
17.65,0.0,1.0,1.0,1.0
17.7,0.0,1.0,1.0,1.0
17.75,4.0,1.0,1.0,1.0
17.8,6.0,1.0,1.0,1.0
17.85,6.0,1.0,1.0,1.0
17.9,15.9969,1.0,1.0,1.0
17.95,0.0,1.0,1.0,1.0
18.0,14.4992,1.0,1.0,1.0
18.05,3.0,1.0,1.0,1.0
18.1,2.4992,1.0,1.0,1.0
18.15,28.0,1.0,1.0,1.0
18.2,2.0,1.0,1.0,1.0
18.25,4.0,1.0,1.0,1.0
18.3,5.0,1.0,1.0,1.0
18.35,10.0,1.0,1.0,1.0
18.4,2.0,1.0,1.0,1.0
18.45,8.9984,1.0,1.0,1.0
18.5,5.0,1.0,1.0,1.0
18.55,0.0,1.0,1.0,1.0
18.6,4.0,1.0,1.0,1.0
18.65,2.0,1.0,1.0,1.0
18.7,7.0,1.0,1.0,1.0
18.75,2.0,1.0,1.0,1.0
18.8,2.0,1.0,1.0,1.0
18.85,6.0,1.0,1.0,1.0
18.9,6.0,1.0,1.0,1.0
18.95,8.0016,1.0,1.0,1.0
19.0,5.9984,1.0,1.0,1.0
19.05,0.4992,1.0,1.0,1.0
19.1,5.0,1.0,1.0,1.0
19.15,4.0,1.0,1.0,1.0
19.2,2.0,1.0,1.0,1.0
19.25,4.0,1.0,1.0,1.0
19.3,0.0,1.0,1.0,1.0
19.35,7.0,1.0,1.0,1.0
19.4,3.9984,1.0,1.0,1.0
19.45,3.4992,1.0,1.0,1.0
19.5,2.0,1.0,1.0,1.0
19.55,5.0,1.0,1.0,1.0
19.6,7.0,1.0,1.0,1.0
19.65,4.0,1.0,1.0,1.0
19.7,2.0,1.0,1.0,1.0
19.75,4.0,1.0,1.0,1.0
19.8,3.0,1.0,1.0,1.0
19.85,1.0,1.0,1.0,1.0
19.9,3.0,1.0,1.0,1.0
19.95,0.0,1.0,1.0,1.0
20.0,2.0,1.0,1.0,1.0
20.05,9.5008,1.0,1.0,1.0
20.1,9.5008,1.0,1.0,1.0
20.15,5.0,1.0,1.0,1.0
20.2,3.0,1.0,1.0,1.0
20.25,4.0,1.0,1.0,1.0
20.3,2.0,1.0,1.0,1.0
20.35,2.0,1.0,1.0,1.0
20.4,4.0,1.0,1.0,1.0
20.45,2.0,1.0,1.0,1.0
20.5,5.0,1.0,1.0,1.0
20.55,3.0,1.0,1.0,1.0
20.6,5.0,1.0,1.0,1.0
20.65,2.0,1.0,1.0,1.0
20.7,5.4992,1.0,1.0,1.0
20.75,6.0,1.0,1.0,1.0
20.8,4.0,1.0,1.0,1.0
20.85,5.0,1.0,1.0,1.0
20.9,19.0,1.0,1.0,1.0
20.95,12.0,1.0,1.0,1.0
21.0,5.0,1.0,1.0,1.0
21.05,5.0,1.0,1.0,1.0
21.1,7.5008,1.0,1.0,1.0
21.15,7.0,1.0,1.0,1.0
21.2,4.4992,1.0,1.0,1.0
21.25,2.0,1.0,1.0,1.0
21.3,5.0,1.0,1.0,1.0
21.35,4.0,1.0,1.0,1.0
21.4,2.0,1.0,1.0,1.0
21.45,12.0,1.0,1.0,1.0
21.5,8.0,1.0,1.0,1.0
21.55,12.0,1.0,1.0,1.0
21.6,4.5008,1.0,1.0,1.0
21.65,17.0,1.0,1.0,1.0
21.7,6.0,1.0,1.0,1.0
21.75,15.0,1.0,1.0,1.0
21.8,10.0,1.0,1.0,1.0
21.85,13.0,1.0,1.0,1.0
21.9,11.0,1.0,1.0,1.0
21.95,14.5008,1.0,1.0,1.0
22.0,10.0,1.0,1.0,1.0
22.05,21.5008,1.0,1.0,1.0
22.1,92.0,1.0,1.0,1.0
22.15,155.4992,1.0,1.0,1.0
22.2,236.0016,1.0,1.0,1.0
22.25,394.4977,1.0,1.0,1.0
22.3,513.4945,1.0,1.0,1.0
22.35,584.9984,1.0,1.0,1.0
22.4,619.4992,1.0,1.0,1.0
22.45,692.4945,1.0,1.0,1.0
22.5,631.9968,1.0,1.0,1.0
22.55,610.0032,1.0,1.0,1.0
22.6,560.4976,1.0,1.0,1.0
22.65,373.0047,1.0,1.0,1.0
22.7,318.4977,1.0,1.0,1.0
22.75,280.9969,1.0,1.0,1.0
22.8,241.5008,1.0,1.0,1.0
22.85,257.0,1.0,1.0,1.0
22.9,270.5008,1.0,1.0,1.0
22.95,353.0,1.0,1.0,1.0
23.0,358.4992,1.0,1.0,1.0
23.05,495.9984,1.0,1.0,1.0
23.1,545.0016,1.0,1.0,1.0
23.15,719.0032,1.0,1.0,1.0
23.2,1061.5,1.0,1.0,1.0
23.25,1885,1.0,1.0,1.0
23.3,3746,1.0,1.0,1.0
23.35,13376.9,1.0,1.0,1.0
23.4,128304,1.0,1.0,1.0
23.45,8771997.0,1.0,1.0,1.0
23.5,1946268.5,1.0,1.0,1.0
23.55,63815,1.0,1.0,1.0
23.6,9068.56,1.0,1.0,1.0
23.65,2871.01,1.0,1.0,1.0
23.7,1381.5,1.0,1.0,1.0
23.75,909.5024,1.0,1.0,1.0
23.8,621.4976,1.0,1.0,1.0
23.85,405.4992,1.0,1.0,1.0
23.9,299.4992,1.0,1.0,1.0
23.95,213.5055,1.0,1.0,1.0
24.0,222.0016,1.0,1.0,1.0
24.05,155.4976,1.0,1.0,1.0
24.1,130.9984,1.0,1.0,1.0
24.15,100.9969,1.0,1.0,1.0
24.2,111.4992,1.0,1.0,1.0
24.25,105.5008,1.0,1.0,1.0
24.3,75.4992,1.0,1.0,1.0
24.35,65.5008,1.0,1.0,1.0
24.4,64.5008,1.0,1.0,1.0
24.45,81.4976,1.0,1.0,1.0
24.5,61.5008,1.0,1.0,1.0
24.55,46.0,1.0,1.0,1.0
24.6,28.0016,1.0,1.0,1.0
24.65,23.0,1.0,1.0,1.0
24.7,21.0,1.0,1.0,1.0
24.75,28.0,1.0,1.0,1.0
24.8,26.0,1.0,1.0,1.0
24.85,31.4992,1.0,1.0,1.0
24.9,27.0,1.0,1.0,1.0
24.95,21.0,1.0,1.0,1.0
25.0,19.0,1.0,1.0,1.0
25.05,26.4992,1.0,1.0,1.0
25.1,30.0,1.0,1.0,1.0
25.15,14.4992,1.0,1.0,1.0
25.2,20.0,1.0,1.0,1.0
25.25,17.0,1.0,1.0,1.0
25.3,8.0,1.0,1.0,1.0
25.35,9.5008,1.0,1.0,1.0
25.4,8.4992,1.0,1.0,1.0
25.45,17.0,1.0,1.0,1.0
25.5,14.5008,1.0,1.0,1.0
25.55,8.0016,1.0,1.0,1.0
25.6,12.0,1.0,1.0,1.0
25.65,5.0,1.0,1.0,1.0
25.7,25.0,1.0,1.0,1.0
25.75,10.0,1.0,1.0,1.0
25.8,12.0,1.0,1.0,1.0
25.85,5.0,1.0,1.0,1.0
25.9,9.0,1.0,1.0,1.0
25.95,6.0,1.0,1.0,1.0
26.0,6.4992,1.0,1.0,1.0
26.05,9.4992,1.0,1.0,1.0
26.1,7.0,1.0,1.0,1.0
26.15,2.0,1.0,1.0,1.0
26.2,19.0016,1.0,1.0,1.0
26.25,7.5008,1.0,1.0,1.0
26.3,8.0,1.0,1.0,1.0
26.35,10.0,1.0,1.0,1.0
26.4,6.0,1.0,1.0,1.0
26.45,11.0,1.0,1.0,1.0
26.5,2.0,1.0,1.0,1.0
26.55,6.0,1.0,1.0,1.0
26.6,9.0,1.0,1.0,1.0
26.65,0.0,1.0,1.0,1.0
26.7,3.0,1.0,1.0,1.0
26.75,2.0,1.0,1.0,1.0
26.8,7.0,1.0,1.0,1.0
26.85,2.0,1.0,1.0,1.0
26.9,4.0,1.0,1.0,1.0
26.95,9.0,1.0,1.0,1.0
27.0,3.0,1.0,1.0,1.0
27.05,6.4992,1.0,1.0,1.0
27.1,15.5008,1.0,1.0,1.0
27.15,0.0,1.0,1.0,1.0
27.2,8.0,1.0,1.0,1.0
27.25,7.0,1.0,1.0,1.0
27.3,6.0,1.0,1.0,1.0
27.35,0.0,1.0,1.0,1.0
27.4,4.0,1.0,1.0,1.0
27.45,0.4992,1.0,1.0,1.0
27.5,5.0,1.0,1.0,1.0
27.55,6.0,1.0,1.0,1.0
27.6,0.0,1.0,1.0,1.0
27.65,6.0,1.0,1.0,1.0
27.7,4.0,1.0,1.0,1.0
27.75,98.0,1.0,1.0,1.0
27.8,3.0,1.0,1.0,1.0
27.85,0.0,1.0,1.0,1.0
27.9,7.0,1.0,1.0,1.0
27.95,2.0,1.0,1.0,1.0
28.0,0.0,1.0,1.0,1.0
28.05,4.0,1.0,1.0,1.0
28.1,6.0016,1.0,1.0,1.0
28.15,2.0,1.0,1.0,1.0
28.2,7.0,1.0,1.0,1.0
28.25,6.0,1.0,1.0,1.0
28.3,0.0,1.0,1.0,1.0
28.35,6.0,1.0,1.0,1.0
28.4,3.0,1.0,1.0,1.0
28.45,6.0,1.0,1.0,1.0
28.5,7.0,1.0,1.0,1.0
28.55,1.0,1.0,1.0,1.0
28.6,6.0,1.0,1.0,1.0
28.65,2.0,1.0,1.0,1.0
28.7,60.0,1.0,1.0,1.0
28.75,4.0,1.0,1.0,1.0
28.8,5.0,1.0,1.0,1.0
28.85,0.0,1.0,1.0,1.0
28.9,8.0,1.0,1.0,1.0
28.95,0.0,1.0,1.0,1.0
29.0,4.0,1.0,1.0,1.0
29.05,6.0,1.0,1.0,1.0
29.1,0.0,1.0,1.0,1.0
29.15,2.0,1.0,1.0,1.0
29.2,6.0,1.0,1.0,1.0
29.25,6.0,1.0,1.0,1.0
29.3,1.5008,1.0,1.0,1.0
29.35,4.0,1.0,1.0,1.0
29.4,3.0,1.0,1.0,1.0
29.45,4.0,1.0,1.0,1.0
29.5,0.0,1.0,1.0,1.0
29.55,2.0,1.0,1.0,1.0
29.6,2.5008,1.0,1.0,1.0
29.65,5.0,1.0,1.0,1.0
29.7,2.0,1.0,1.0,1.0
29.75,8.0,1.0,1.0,1.0
29.8,2.0,1.0,1.0,1.0
29.85,4.0,1.0,1.0,1.0
29.9,0.0,1.0,1.0,1.0
29.95,6.4992,1.0,1.0,1.0
30.0,7.0,1.0,1.0,1.0