File: XRD:XRR/RIXS 214/M11 L2NOT/M11d_L2NOT_002_XRD_2-Theta_Omega.asc
*TYPE		=  Raw
*CLASS		=  ASCII CLASS
*SAMPLE		=
*COMMENT	=
*FNAME		=  M11d_L2NOT_002_XRD_2-Theta_Omega.asc
*DATE		=  09-Nov-22 16:43

*GROUP_COUNT	=  1
*GONIO		=  SmartLab(In-plane), 0.000000
*ATTACHMENT	=  Z-Phi Stage
*ASC		=  0, 0, 0.000000, 0.000000
*I_MONOCHRO	=  Ge(220)x2, 0.000000
*FILTER		=  None
*C_MONOCHRO	=  None, 0.000000
*SLIT_NAME	=  0, Incident slit
*SLIT_NAME	=  1, Receiving slit # 1
*SLIT_NAME	=  2, Receiving slit # 2
*COUNTER	=  D/teX Ultra 250, 0
*POS_FORMAT	=  0
*SCAN_AXIS	=  2Theta/Omega
*MEAS_MODE	=  Continuous Scanning
*TARGET		=  29
*XRAY_CHAR	=  K-ALPHA1
*WAVE_LENGTH1	=  1.54059
*WAVE_LENGTH2	=  1.54441
*THICKNESS	=  0, 0.000000
*MU		=  0, 0.000000
*SCAN_MODE	=  2Theta/Omega
*SPEED_DIM	=  sec./step
*XUNIT		=  deg.
*YUNIT		=  counts
*SCALE_MODE	=  1
*REP_COUNT	=  0
*SE_COUNT	=  0
*STD_MATERIAL	=  Unknown, Unknown, 0.000000, 0.000000, 0.000000, 0.000000, 0.000000, 0.000000
*LATT_CONS	=  0, Unknown, Unknown, 0.000000, 0.000000, 0.000000, 0.000000, 0.000000, 0.000000
*SEC_COUNT	=  1
*TSPEC_SIZE	=  0
*EXTRA_SIZE	=  0
*MEMO		=

*BEGIN
*GROUP		=  0
*START		=  42
*STOP		=  52
*STEP		=  0.01
*OFFSET		=  -0.155100
*SPEED		=  23.9588
*SLIT_SPEC	=  0, 0.400mm, 0.4, 0.000000
*SLIT_SPEC	=  1, 0.400mm, 0.4, 0.000000
*SLIT_SPEC	=  2, 0.400mm, 0.4, 0.000000
*KV		=  40
*MA		=  30
*LOW		=  0.000000
*HIGH		=  0.000000
*CTEMPER	=  0, 0.000000
*CTEMPER	=  1, 0.000000
*CTEMPER	=  2, 0.000000
*PAREX		=  0, 0.000000
*PAREX		=  1, 0.000000
*PAREX		=  2, 0.000000
*PAREX		=  3, 0.000000
*PAREX		=  4, 0.000000
*PAREX		=  5, 0.000000
*PAREX		=  6, 0.000000
*PAREX		=  7, 0.000000
*PAREX		=  8, 0.000000
*PAREX		=  9, 0.000000
*PAREX		=  10, 0.000000
*PAREX		=  11, 0.000000
*PAREX		=  12, 0.000000
*PAREX		=  13, 0.000000
*PAREX		=  14, 0.000000
*PAREX		=  15, 0.000000
*FULL_SCALE	=  1387984.4
*INDEX		=  0, 0, 0
*COUNT		=  1001
63, 39, 70.0111, 85.4944
81.4833, 76.5167, 82, 117.978
138.517, 151.506, 176.494, 208.989
227.011, 251.989, 304.989, 343
367.989, 414, 530.483, 549.978
631.528, 651.956, 797.506, 802.033
976.494, 1066.96, 1125.98, 1195.96
1300.01, 1487.96, 1569.53, 1680.49
1778.99, 1993.51, 1991.48, 2257.43
2410.01, 2592.04, 2657.44, 2909.46
3012.44, 3162.55, 3501.48, 3615.45
3769.01, 3948.38, 4181.44, 4285.08
4485.91, 4727.63, 4916.31, 5255.54
5378.08, 5609.47, 5737.86, 6105.38
6014.74, 6429.34, 6558.39, 6833.09
7015.46, 7260.02, 7419.47, 7612.38
7884.07, 7928.41, 8109.1, 8397.91
8443.01, 8675.97, 8741.51, 9020.98
9112.01, 9093.43, 9305.46, 9296.57
9310.03, 9467.12, 9457.72, 9639.07
9900.06, 9776.53, 9650.33, 9963.56
9784.97, 9794.04, 9916.94, 9594.55
9768.16, 9499.29, 9492.67, 9599.9
9547.1, 9430.52, 9289.92, 9192.44
9094.73, 8920.06, 8834.77, 8743.47
8539.64, 8422.89, 8261.21, 7998.94
7691.04, 7800.03, 7486.93, 7239.62
7170.98, 6813.46, 6567.45, 6539.83
6283.82, 6051.1, 5838.09, 5542.38
5309.64, 5201.46, 4938.91, 4784.69
4436.92, 4243.01, 3972.61, 3712.45
3596.61, 3402.03, 3259.49, 2990.97
2857.55, 2646.06, 2430.54, 2189.46
2115.52, 1918.55, 1844.98, 1706.03
1579.98, 1480.48, 1366.57, 1245.51
1129.03, 1011.46, 903.044, 854
792.011, 704.483, 631.033, 562.506
540.483, 490.539, 480, 445.461
436.022, 426.022, 414.472, 431.539
445.978, 431.494, 427, 486.483
487.989, 517, 507.044, 503.483
566.483, 578.517, 565.483, 696.472
699.011, 730.494, 753.517, 748.967
832.517, 837.494, 873.022, 891.483
863.45, 947.528, 990, 999.933
998.022, 1010.04, 1060.46, 1086.03
1038.99, 994.011, 1059.53, 1028.06
1018.45, 1079.45, 1080.49, 1015.53
986.978, 1004.99, 918.033, 950
914.044, 875.461, 849.472, 860.033
803.033, 816.967, 766.044, 735.967
698.506, 652.506, 636.978, 620.55
615.989, 553.022, 549.472, 520.506
490.989, 498.033, 437.494, 423.494
494.494, 436.494, 377.033, 383.472
374.494, 361.022, 376.989, 380.517
365.989, 381.022, 387.989, 362.989
398.011, 447.989, 399.033, 421.978
460.494, 513.472, 508.528, 548.011
569.461, 542.011, 561.506, 628.022
679.461, 698.472, 723.55, 701.439
776.022, 791.011, 793.472, 793.517
876.494, 887.494, 900.483, 943.033
923.483, 921, 971.528, 972.472
1002.45, 945.078, 986.967, 1025.98
1061, 990.011, 1016.97, 964.978
1025.55, 997.539, 966.967, 993.461
978.044, 903.011, 859.033, 842.944
812.011, 845.033, 814.506, 804.472
791.472, 753.539, 775.967, 704.022
748.506, 734.033, 664.494, 702.989
670.472, 664.044, 600.989, 623.517
591.022, 540.967, 526.011, 526
497, 518.472, 500.461, 474.561
504.494, 516.506, 430, 409
432.022, 457.483, 421.494, 426.494
412.044, 402.472, 384.494, 395.494
407.528, 435.978, 465.011, 465.989
454.989, 515.033, 441.967, 518
494.011, 539.506, 560.483, 555.506
552.506, 595, 565.494, 636.978
596.506, 632.528, 652.967, 690.483
648.517, 701.494, 684.956, 674.044
767.011, 693.989, 691.494, 747.506
740.978, 788.461, 789.561, 797.528
787.989, 765.967, 756.967, 747.55
791.967, 783.022, 739.494, 742.55
714.45, 753.022, 732.989, 690.517
699.539, 696.461, 716.978, 723.539
730.461, 689.989, 697.956, 720.594
673.978, 682.506, 711.517, 633.494
670.483, 693.483, 728.033, 757
715.428, 724.55, 690.011, 675.033
759.439, 807.011, 766.506, 781.989
828, 800, 825.978, 968.528
962.483, 953.539, 964.978, 983.944
1027.52, 1122.01, 1195.47, 1136.02
1266.49, 1290.53, 1287, 1402.44
1466.49, 1533, 1559.49, 1599.46
1722.54, 1746.94, 1829.99, 1937.47
1942.1, 2000.45, 2138.54, 2103.41
2222.55, 2305.96, 2490.99, 2599.98
2659.97, 2787.58, 2883.39, 3087.04
3102.94, 3161.52, 3319.99, 3573.46
3744.51, 3925.01, 4109.93, 4390.97
4638.94, 4987.13, 5324.75, 5570.49
6067.06, 6405.41, 6854.84, 7425.47
8219.27, 8938.03, 10046, 10995.5
12447.1, 13988.3, 16464.3, 19493.7
23742.7, 30816.4, 43587.3, 68797.2
110494, 169551, 270184, 531633
1669449.5, 4091291.3, 7314201, 10905732
17380072, 25501722, 24605714, 12662972
2719231, 860226, 463215, 268984
152458, 84169.6, 51977.3, 37193.6
28322.9, 21761.9, 17298.8, 14245.1
11952.9, 10251, 8877.75, 7771.1
6968.54, 6012.1, 5450.54, 4719.1
4378.52, 3773.59, 3552, 3300.07
3065.47, 2768.09, 2509.46, 2287.55
2136.48, 1837.56, 1802.99, 1714.52
1561.02, 1472.03, 1353.51, 1361.47
1308.03, 1098.47, 1100.09, 1061.94
951.056, 925.483, 864.494, 808.011
854.472, 778.528, 756.472, 719.956
697.572, 677.506, 664.506, 595.989
576.011, 580, 597.011, 522.494
553.483, 489.494, 481.022, 469.022
449.989, 447, 416.494, 419.022
421.989, 437.472, 407.517, 348.022
346.517, 348.45, 366.033, 316.494
319.989, 286.528, 300.989, 286.494
302.011, 245.989, 254, 252
236.494, 201.022, 228.506, 207.483
194.011, 180.494, 160.494, 166.506
132.978, 162.539, 141.989, 147.494
122.517, 112.472, 117.528, 109.989
121, 85.0111, 88.9889, 80.0111
82.5056, 91.9889, 65.5056, 80.5056
63, 88.9778, 71.0111, 56.0111
70.4944, 79.5056, 68.9889, 64.9889
65.0222, 75, 65.4944, 56.5056
51.4944, 61.5056, 65.9889, 59.5056
57, 59.5056, 76.9778, 52.5056
54.5056, 64.0111, 57.9889, 50.0111
75, 51, 64.4944, 57.5056
66.4944, 65.5056, 43, 56
71, 65.4944, 50.4944, 60.0111
49.4944, 40, 74.4944, 51.0111
64.4944, 46.9889, 63.0111, 48.9889
29.5167, 37.4944, 52.4944, 43.4944
51.0111, 56.5056, 39, 48
34, 37.4833, 55.5167, 40
30.4944, 41.5056, 31.4833, 22.5167
15, 32, 22, 24.4944
24, 32.5056, 29.9889, 34.0111
15, 30, 22, 19
22, 15, 23.4944, 11.5056
21.4944, 12.5056, 19, 18.9889
16.0111, 8, 12.4944, 28.5056
8, 21, 19, 26
15.4944, 22, 21.5056, 13
11.4944, 12.5056, 9, 15
19, 7, 29, 22.4944
18.5056, 9, 18, 9
15, 14, 22, 22.4944
29.5056, 27.4944, 15.4944, 24.0111
18, 28, 6, 16
31, 11, 15, 10
19.4944, 23, 16.5056, 23
20, 21, 10, 13
7, 18.4944, 17.4944, 17
18, 9.01111, 12, 15
13, 5, 20, 9
14, 11, 5, 13
5, 10, 8, 7
6, 6, 2, 5.49445
9.50555, 0.000000, 13, 2
14, 12, 15, 4
10, 10, 6, 10
9, 4, 10, 17.4944
16.5056, 12, 3, 6
5, 10, 11, 14
7, 9, 10.4944, 13.5056
6, 10, 13.9889, 7.01111
9, 15.4944, 11.5056, 6
11.4944, 30.5056, 18.4944, 7.50555
20, 13, 11, 17
7, 10, 5, 11.4944
3.50555, 5, 6, 17
6, 14, 11, 10
3, 11, 7, 25
8, 5, 14, 3
6, 3.49445, 7.50555, 7
10.4944, 4.50555, 9, 2
11.4944, 14, 6.50555, 4
9, 6, 5, 0.000000
4, 2, 8, 11
6, 9.49445, 2, 18.5056
9, 0.000000, 0.000000, 3
5, 0.000000, 11, 3
6, 7, 14, 7
4, 7, 5, 14
3, 0.000000, 10, 2
9, 5.49445, 6.50555, 15.4944
13, 5.50555, 11, 6
19, 18, 4, 7
13, 13.9889, 14.0111, 6.49445
5.50555, 8, 14.4944, 11.5056
15, 21, 3, 2
8.49445, 9.50555, 9.49445, 4.50555
9, 7, 2, 12
6, 14, 11, 8
6, 10, 2, 10
5, 4, 11, 6
15, 12, 4, 7
8, 6, 5.49445, 6.50555
5, 13, 8, 3
6, 11, 2, 2
8, 8, 5, 2
12, 7, 20, 16
13, 8, 4, 15
14.4944, 6.50555, 10, 8
4, 4, 0.000000, 4.49445
13.5056, 13, 8, 7
4, 7, 10, 18
9, 0.000000, 13, 5
17, 4, 15, 11
5, 6, 6, 5
0.000000, 6, 16, 3
8, 6, 11, 9.49445
12.5056, 7, 11, 10
4, 9, 7, 9
4, 6, 2, 9
4, 3, 6, 2
0.000000, 5, 10, 5
2, 5, 6, 10
11, 11, 3, 4
12, 10, 8, 11
5, 0.000000, 11, 9.49445
4.50555, 13, 3, 3
5.49445, 4, 5.50555, 7
7, 10.4944, 5.50555, 3.98889
5.01111, 16, 0.000000, 4
8, 0.000000, 11, 6.49445
11, 16.5056, 7, 6
11, 5, 10, 0.000000
8, 10, 10, 5
10, 5, 4, 19
7, 14, 4, 3
4
*END

*EOF