File: XRD:XRR/RIXS 214/M11 L2NOT/M11d_L2NOT_002_XRD.csv
#twotheta, yobs, ycal, bkg, diff
42.0,63.0,1.0,1.0,1.0
42.04,81.4833,1.0,1.0,1.0
42.08,138.5167,1.0,1.0,1.0
42.12,227.0111,1.0,1.0,1.0
42.16,367.9889,1.0,1.0,1.0
42.2,631.5278,1.0,1.0,1.0
42.24,976.4944,1.0,1.0,1.0
42.28,1300.01,1.0,1.0,1.0
42.32,1778.99,1.0,1.0,1.0
42.36,2410.011,1.0,1.0,1.0
42.4,3012.439,1.0,1.0,1.0
42.44,3769.011,1.0,1.0,1.0
42.48,4485.91,1.0,1.0,1.0
42.52,5378.08,1.0,1.0,1.0
42.56,6014.74,1.0,1.0,1.0
42.6,7015.46,1.0,1.0,1.0
42.64,7884.07,1.0,1.0,1.0
42.68,8443.01,1.0,1.0,1.0
42.72,9112.01,1.0,1.0,1.0
42.76,9310.03,1.0,1.0,1.0
42.8,9900.06,1.0,1.0,1.0
42.84,9784.97,1.0,1.0,1.0
42.88,9768.16,1.0,1.0,1.0
42.92,9547.1,1.0,1.0,1.0
42.96,9094.73,1.0,1.0,1.0
43.0,8539.64,1.0,1.0,1.0
43.04,7691.04,1.0,1.0,1.0
43.08,7170.98,1.0,1.0,1.0
43.12,6283.82,1.0,1.0,1.0
43.16,5309.64,1.0,1.0,1.0
43.2,4436.92,1.0,1.0,1.0
43.24,3596.61,1.0,1.0,1.0
43.28,2857.55,1.0,1.0,1.0
43.32,2115.52,1.0,1.0,1.0
43.36,1579.98,1.0,1.0,1.0
43.4,1129.03,1.0,1.0,1.0
43.44,792.0111,1.0,1.0,1.0
43.48,540.4833,1.0,1.0,1.0
43.52,436.0222,1.0,1.0,1.0
43.56,445.9778,1.0,1.0,1.0
43.6,487.9889,1.0,1.0,1.0
43.64,566.4833,1.0,1.0,1.0
43.68,699.0111,1.0,1.0,1.0
43.72,832.5167,1.0,1.0,1.0
43.76,863.45,1.0,1.0,1.0
43.8,998.0222,1.0,1.0,1.0
43.84,1038.99,1.0,1.0,1.0
43.88,1018.45,1.0,1.0,1.0
43.92,986.9778,1.0,1.0,1.0
43.96,914.0444,1.0,1.0,1.0
44.0,803.0333,1.0,1.0,1.0
44.04,698.5056,1.0,1.0,1.0
44.08,615.9889,1.0,1.0,1.0
44.12,490.9889,1.0,1.0,1.0
44.16,494.4944,1.0,1.0,1.0
44.2,374.4944,1.0,1.0,1.0
44.24,365.9889,1.0,1.0,1.0
44.28,398.0111,1.0,1.0,1.0
44.32,460.4944,1.0,1.0,1.0
44.36,569.4611,1.0,1.0,1.0
44.4,679.4611,1.0,1.0,1.0
44.44,776.0222,1.0,1.0,1.0
44.48,876.4944,1.0,1.0,1.0
44.52,923.4833,1.0,1.0,1.0
44.56,1002.45,1.0,1.0,1.0
44.6,1061.0,1.0,1.0,1.0
44.64,1025.55,1.0,1.0,1.0
44.68,978.0444,1.0,1.0,1.0
44.72,812.0111,1.0,1.0,1.0
44.76,791.4722,1.0,1.0,1.0
44.8,748.5056,1.0,1.0,1.0
44.84,670.4722,1.0,1.0,1.0
44.88,591.0222,1.0,1.0,1.0
44.92,497.0,1.0,1.0,1.0
44.96,504.4944,1.0,1.0,1.0
45.0,432.0222,1.0,1.0,1.0
45.04,412.0444,1.0,1.0,1.0
45.08,407.5278,1.0,1.0,1.0
45.12,454.9889,1.0,1.0,1.0
45.16,494.0111,1.0,1.0,1.0
45.2,552.5056,1.0,1.0,1.0
45.24,596.5056,1.0,1.0,1.0
45.28,648.5167,1.0,1.0,1.0
45.32,767.0111,1.0,1.0,1.0
45.36,740.9778,1.0,1.0,1.0
45.4,787.9889,1.0,1.0,1.0
45.44,791.9667,1.0,1.0,1.0
45.48,714.45,1.0,1.0,1.0
45.52,699.5389,1.0,1.0,1.0
45.56,730.4611,1.0,1.0,1.0
45.6,673.9778,1.0,1.0,1.0
45.64,670.4833,1.0,1.0,1.0
45.68,715.4278,1.0,1.0,1.0
45.72,759.4389,1.0,1.0,1.0
45.76,828.0,1.0,1.0,1.0
45.8,962.4833,1.0,1.0,1.0
45.84,1027.52,1.0,1.0,1.0
45.88,1266.49,1.0,1.0,1.0
45.92,1466.49,1.0,1.0,1.0
45.96,1722.54,1.0,1.0,1.0
46.0,1942.1,1.0,1.0,1.0
46.04,2222.55,1.0,1.0,1.0
46.08,2659.97,1.0,1.0,1.0
46.12,3102.94,1.0,1.0,1.0
46.16,3744.51,1.0,1.0,1.0
46.2,4638.94,1.0,1.0,1.0
46.24,6067.06,1.0,1.0,1.0
46.28,8219.27,1.0,1.0,1.0
46.32,12447.1,1.0,1.0,1.0
46.36,23742.7,1.0,1.0,1.0
46.4,110494,1.0,1.0,1.0
46.44,1669449.5,1.0,1.0,1.0
46.48,17380072.0,1.0,1.0,1.0
46.52,2719231.0,1.0,1.0,1.0
46.56,152458,1.0,1.0,1.0
46.6,28322.9,1.0,1.0,1.0
46.64,11952.9,1.0,1.0,1.0
46.68,6968.54,1.0,1.0,1.0
46.72,4378.52,1.0,1.0,1.0
46.76,3065.47,1.0,1.0,1.0
46.8,2136.48,1.0,1.0,1.0
46.84,1561.02,1.0,1.0,1.0
46.88,1308.03,1.0,1.0,1.0
46.92,951.0555,1.0,1.0,1.0
46.96,854.4722,1.0,1.0,1.0
47.0,697.5722,1.0,1.0,1.0
47.04,576.0111,1.0,1.0,1.0
47.08,553.4833,1.0,1.0,1.0
47.12,449.9889,1.0,1.0,1.0
47.16,421.9889,1.0,1.0,1.0
47.2,346.5167,1.0,1.0,1.0
47.24,319.9889,1.0,1.0,1.0
47.28,302.0111,1.0,1.0,1.0
47.32,236.4944,1.0,1.0,1.0
47.36,194.0111,1.0,1.0,1.0
47.4,132.9778,1.0,1.0,1.0
47.44,122.5167,1.0,1.0,1.0
47.48,121.0,1.0,1.0,1.0
47.52,82.5056,1.0,1.0,1.0
47.56,63.0,1.0,1.0,1.0
47.6,70.4944,1.0,1.0,1.0
47.64,65.0222,1.0,1.0,1.0
47.68,51.4944,1.0,1.0,1.0
47.72,57.0,1.0,1.0,1.0
47.76,54.5056,1.0,1.0,1.0
47.8,75.0,1.0,1.0,1.0
47.84,66.4944,1.0,1.0,1.0
47.88,71.0,1.0,1.0,1.0
47.92,49.4944,1.0,1.0,1.0
47.96,64.4944,1.0,1.0,1.0
48.0,29.5167,1.0,1.0,1.0
48.04,51.0111,1.0,1.0,1.0
48.08,34.0,1.0,1.0,1.0
48.12,30.4944,1.0,1.0,1.0
48.16,15.0,1.0,1.0,1.0
48.2,24.0,1.0,1.0,1.0
48.24,15.0,1.0,1.0,1.0
48.28,22.0,1.0,1.0,1.0
48.32,21.4944,1.0,1.0,1.0
48.36,16.0111,1.0,1.0,1.0
48.4,8.0,1.0,1.0,1.0
48.44,15.4944,1.0,1.0,1.0
48.48,11.4944,1.0,1.0,1.0
48.52,19.0,1.0,1.0,1.0
48.56,18.5056,1.0,1.0,1.0
48.6,15.0,1.0,1.0,1.0
48.64,29.5056,1.0,1.0,1.0
48.68,18.0,1.0,1.0,1.0
48.72,31.0,1.0,1.0,1.0
48.76,19.4944,1.0,1.0,1.0
48.8,20.0,1.0,1.0,1.0
48.84,7.0,1.0,1.0,1.0
48.88,18.0,1.0,1.0,1.0
48.92,13.0,1.0,1.0,1.0
48.96,14.0,1.0,1.0,1.0
49.0,5.0,1.0,1.0,1.0
49.04,6.0,1.0,1.0,1.0
49.08,9.5056,1.0,1.0,1.0
49.12,14.0,1.0,1.0,1.0
49.16,10.0,1.0,1.0,1.0
49.2,9.0,1.0,1.0,1.0
49.24,16.5056,1.0,1.0,1.0
49.28,5.0,1.0,1.0,1.0
49.32,7.0,1.0,1.0,1.0
49.36,6.0,1.0,1.0,1.0
49.4,9.0,1.0,1.0,1.0
49.44,11.4944,1.0,1.0,1.0
49.48,20.0,1.0,1.0,1.0
49.52,7.0,1.0,1.0,1.0
49.56,3.5056,1.0,1.0,1.0
49.6,6.0,1.0,1.0,1.0
49.64,3.0,1.0,1.0,1.0
49.68,8.0,1.0,1.0,1.0
49.72,6.0,1.0,1.0,1.0
49.76,10.4944,1.0,1.0,1.0
49.8,11.4944,1.0,1.0,1.0
49.84,9.0,1.0,1.0,1.0
49.88,4.0,1.0,1.0,1.0
49.92,6.0,1.0,1.0,1.0
49.96,9.0,1.0,1.0,1.0
50.0,5.0,1.0,1.0,1.0
50.04,6.0,1.0,1.0,1.0
50.08,4.0,1.0,1.0,1.0
50.12,3.0,1.0,1.0,1.0
50.16,9.0,1.0,1.0,1.0
50.2,13.0,1.0,1.0,1.0
50.24,19.0,1.0,1.0,1.0
50.28,13.0,1.0,1.0,1.0
50.32,5.5056,1.0,1.0,1.0
50.36,15.0,1.0,1.0,1.0
50.4,8.4944,1.0,1.0,1.0
50.44,9.0,1.0,1.0,1.0
50.48,6.0,1.0,1.0,1.0
50.52,6.0,1.0,1.0,1.0
50.56,5.0,1.0,1.0,1.0
50.6,15.0,1.0,1.0,1.0
50.64,8.0,1.0,1.0,1.0
50.68,5.0,1.0,1.0,1.0
50.72,6.0,1.0,1.0,1.0
50.76,8.0,1.0,1.0,1.0
50.8,12.0,1.0,1.0,1.0
50.84,13.0,1.0,1.0,1.0
50.88,14.4944,1.0,1.0,1.0
50.92,4.0,1.0,1.0,1.0
50.96,13.5056,1.0,1.0,1.0
51.0,4.0,1.0,1.0,1.0
51.04,9.0,1.0,1.0,1.0
51.08,17.0,1.0,1.0,1.0
51.12,5.0,1.0,1.0,1.0
51.16,0.0,1.0,1.0,1.0
51.2,8.0,1.0,1.0,1.0
51.24,12.5056,1.0,1.0,1.0
51.28,4.0,1.0,1.0,1.0
51.32,4.0,1.0,1.0,1.0
51.36,4.0,1.0,1.0,1.0
51.4,0.0,1.0,1.0,1.0
51.44,2.0,1.0,1.0,1.0
51.48,11.0,1.0,1.0,1.0
51.52,12.0,1.0,1.0,1.0
51.56,5.0,1.0,1.0,1.0
51.6,4.5056,1.0,1.0,1.0
51.64,5.4944,1.0,1.0,1.0
51.68,7.0,1.0,1.0,1.0
51.72,5.0111,1.0,1.0,1.0
51.76,8.0,1.0,1.0,1.0
51.8,11.0,1.0,1.0,1.0
51.84,11.0,1.0,1.0,1.0
51.88,8.0,1.0,1.0,1.0
51.92,10.0,1.0,1.0,1.0
51.96,7.0,1.0,1.0,1.0
52.0,4.0,1.0,1.0,1.0