File: XRD:XRR/SCO/23002_SL(CO)L/23002_SL(CO)L_002_XRD.csv
#twotheta, yobs, ycal, bkg, diff
42.0,8.0,1.0,1.0,1.0
42.04,18.0,1.0,1.0,1.0
42.08,11.0,1.0,1.0,1.0
42.12,5.0,1.0,1.0,1.0
42.16,15.0,1.0,1.0,1.0
42.2,8.5056,1.0,1.0,1.0
42.24,2.4944,1.0,1.0,1.0
42.28,12.0,1.0,1.0,1.0
42.32,10.0,1.0,1.0,1.0
42.36,6.0,1.0,1.0,1.0
42.4,10.0,1.0,1.0,1.0
42.44,9.0,1.0,1.0,1.0
42.48,11.0,1.0,1.0,1.0
42.52,13.0,1.0,1.0,1.0
42.56,5.4944,1.0,1.0,1.0
42.6,2.0,1.0,1.0,1.0
42.64,5.0,1.0,1.0,1.0
42.68,19.0,1.0,1.0,1.0
42.72,19.0,1.0,1.0,1.0
42.76,11.0,1.0,1.0,1.0
42.8,13.4944,1.0,1.0,1.0
42.84,0.4944,1.0,1.0,1.0
42.88,17.0,1.0,1.0,1.0
42.92,11.0,1.0,1.0,1.0
42.96,15.0,1.0,1.0,1.0
43.0,9.5056,1.0,1.0,1.0
43.04,11.0,1.0,1.0,1.0
43.08,9.0,1.0,1.0,1.0
43.12,12.4944,1.0,1.0,1.0
43.16,8.0111,1.0,1.0,1.0
43.2,5.9889,1.0,1.0,1.0
43.24,7.0,1.0,1.0,1.0
43.28,10.0,1.0,1.0,1.0
43.32,22.0,1.0,1.0,1.0
43.36,17.5056,1.0,1.0,1.0
43.4,23.5056,1.0,1.0,1.0
43.44,14.0,1.0,1.0,1.0
43.48,22.4944,1.0,1.0,1.0
43.52,12.0,1.0,1.0,1.0
43.56,28.0,1.0,1.0,1.0
43.6,36.0,1.0,1.0,1.0
43.64,24.0,1.0,1.0,1.0
43.68,35.0,1.0,1.0,1.0
43.72,36.4944,1.0,1.0,1.0
43.76,55.0,1.0,1.0,1.0
43.8,62.0,1.0,1.0,1.0
43.84,78.5056,1.0,1.0,1.0
43.88,71.5167,1.0,1.0,1.0
43.92,59.5056,1.0,1.0,1.0
43.96,95.4944,1.0,1.0,1.0
44.0,86.0,1.0,1.0,1.0
44.04,128.4944,1.0,1.0,1.0
44.08,111.4944,1.0,1.0,1.0
44.12,111.0,1.0,1.0,1.0
44.16,110.4722,1.0,1.0,1.0
44.2,137.0111,1.0,1.0,1.0
44.24,162.9889,1.0,1.0,1.0
44.28,123.5056,1.0,1.0,1.0
44.32,104.0111,1.0,1.0,1.0
44.36,89.0111,1.0,1.0,1.0
44.4,77.0111,1.0,1.0,1.0
44.44,55.5056,1.0,1.0,1.0
44.48,67.5056,1.0,1.0,1.0
44.52,56.5056,1.0,1.0,1.0
44.56,67.0111,1.0,1.0,1.0
44.6,61.0,1.0,1.0,1.0
44.64,71.0,1.0,1.0,1.0
44.68,107.5167,1.0,1.0,1.0
44.72,122.0111,1.0,1.0,1.0
44.76,139.5167,1.0,1.0,1.0
44.8,158.5056,1.0,1.0,1.0
44.84,217.0111,1.0,1.0,1.0
44.88,266.4833,1.0,1.0,1.0
44.92,298.0,1.0,1.0,1.0
44.96,336.9889,1.0,1.0,1.0
45.0,423.4722,1.0,1.0,1.0
45.04,424.4722,1.0,1.0,1.0
45.08,596.5056,1.0,1.0,1.0
45.12,700.5167,1.0,1.0,1.0
45.16,753.9556,1.0,1.0,1.0
45.2,847.5056,1.0,1.0,1.0
45.24,914.4833,1.0,1.0,1.0
45.28,936.5389,1.0,1.0,1.0
45.32,915.4389,1.0,1.0,1.0
45.36,943.5167,1.0,1.0,1.0
45.4,923.9667,1.0,1.0,1.0
45.44,894.5056,1.0,1.0,1.0
45.48,756.4722,1.0,1.0,1.0
45.52,687.5167,1.0,1.0,1.0
45.56,605.5056,1.0,1.0,1.0
45.6,471.9667,1.0,1.0,1.0
45.64,435.5389,1.0,1.0,1.0
45.68,438.0,1.0,1.0,1.0
45.72,406.5167,1.0,1.0,1.0
45.76,535.0555,1.0,1.0,1.0
45.8,590.4833,1.0,1.0,1.0
45.84,674.4389,1.0,1.0,1.0
45.88,765.5056,1.0,1.0,1.0
45.92,948.9667,1.0,1.0,1.0
45.96,1087.47,1.0,1.0,1.0
46.0,1123.94,1.0,1.0,1.0
46.04,1216.44,1.0,1.0,1.0
46.08,1262.96,1.0,1.0,1.0
46.12,1429.96,1.0,1.0,1.0
46.16,1687.41,1.0,1.0,1.0
46.2,2021.92,1.0,1.0,1.0
46.24,2394.39,1.0,1.0,1.0
46.28,2746.99,1.0,1.0,1.0
46.32,3319.39,1.0,1.0,1.0
46.36,3911.93,1.0,1.0,1.0
46.4,4369.561,1.0,1.0,1.0
46.44,4730.561,1.0,1.0,1.0
46.48,5099.45,1.0,1.0,1.0
46.52,5225.07,1.0,1.0,1.0
46.56,5392.49,1.0,1.0,1.0
46.6,5451.59,1.0,1.0,1.0
46.64,5159.58,1.0,1.0,1.0
46.68,5015.04,1.0,1.0,1.0
46.72,4669.52,1.0,1.0,1.0
46.76,4018.01,1.0,1.0,1.0
46.8,3599.42,1.0,1.0,1.0
46.84,3271.0,1.0,1.0,1.0
46.88,3079.04,1.0,1.0,1.0
46.92,2903.98,1.0,1.0,1.0
46.96,2696.49,1.0,1.0,1.0
47.0,2857.59,1.0,1.0,1.0
47.04,2890.93,1.0,1.0,1.0
47.08,2887.06,1.0,1.0,1.0
47.12,3093.02,1.0,1.0,1.0
47.16,3059.92,1.0,1.0,1.0
47.2,3174.48,1.0,1.0,1.0
47.24,2974.46,1.0,1.0,1.0
47.28,2691.03,1.0,1.0,1.0
47.32,2331.14,1.0,1.0,1.0
47.36,1975.47,1.0,1.0,1.0
47.4,1580.59,1.0,1.0,1.0
47.44,1386.48,1.0,1.0,1.0
47.48,1165.97,1.0,1.0,1.0
47.52,1091.98,1.0,1.0,1.0
47.56,984.0,1.0,1.0,1.0
47.6,904.0222,1.0,1.0,1.0
47.64,871.0111,1.0,1.0,1.0
47.68,929.4722,1.0,1.0,1.0
47.72,1121.49,1.0,1.0,1.0
47.76,1723.44,1.0,1.0,1.0
47.8,2881.51,1.0,1.0,1.0
47.84,5739.34,1.0,1.0,1.0
47.88,13248.6,1.0,1.0,1.0
47.92,34397.8,1.0,1.0,1.0
47.96,87821.1,1.0,1.0,1.0
48.0,226447,1.0,1.0,1.0
48.04,4071262.75,1.0,1.0,1.0
48.08,542295,1.0,1.0,1.0
48.12,16946.9,1.0,1.0,1.0
48.16,5587.16,1.0,1.0,1.0
48.2,2796.03,1.0,1.0,1.0
48.24,1914.52,1.0,1.0,1.0
48.28,1487.97,1.0,1.0,1.0
48.32,1161.01,1.0,1.0,1.0
48.36,959.9445,1.0,1.0,1.0
48.4,848.5389,1.0,1.0,1.0
48.44,636.45,1.0,1.0,1.0
48.48,529.9889,1.0,1.0,1.0
48.52,386.0111,1.0,1.0,1.0
48.56,272.0,1.0,1.0,1.0
48.6,275.5056,1.0,1.0,1.0
48.64,191.9556,1.0,1.0,1.0
48.68,181.0,1.0,1.0,1.0
48.72,126.5056,1.0,1.0,1.0
48.76,113.5056,1.0,1.0,1.0
48.8,92.4944,1.0,1.0,1.0
48.84,91.5056,1.0,1.0,1.0
48.88,67.5056,1.0,1.0,1.0
48.92,99.0,1.0,1.0,1.0
48.96,72.5056,1.0,1.0,1.0
49.0,71.9889,1.0,1.0,1.0
49.04,60.5167,1.0,1.0,1.0
49.08,58.0222,1.0,1.0,1.0
49.12,60.0111,1.0,1.0,1.0
49.16,45.9889,1.0,1.0,1.0
49.2,67.9889,1.0,1.0,1.0
49.24,42.4944,1.0,1.0,1.0
49.28,32.0,1.0,1.0,1.0
49.32,35.9889,1.0,1.0,1.0
49.36,51.0,1.0,1.0,1.0
49.4,45.0,1.0,1.0,1.0
49.44,41.5056,1.0,1.0,1.0
49.48,34.4944,1.0,1.0,1.0
49.52,48.4944,1.0,1.0,1.0
49.56,27.0,1.0,1.0,1.0
49.6,12.0,1.0,1.0,1.0
49.64,18.0,1.0,1.0,1.0
49.68,34.0,1.0,1.0,1.0
49.72,25.0,1.0,1.0,1.0
49.76,16.4944,1.0,1.0,1.0
49.8,4.9889,1.0,1.0,1.0
49.84,27.4944,1.0,1.0,1.0
49.88,25.0,1.0,1.0,1.0
49.92,22.5056,1.0,1.0,1.0
49.96,14.4833,1.0,1.0,1.0
50.0,14.5056,1.0,1.0,1.0
50.04,15.9889,1.0,1.0,1.0
50.08,31.0,1.0,1.0,1.0
50.12,17.5056,1.0,1.0,1.0
50.16,19.5056,1.0,1.0,1.0
50.2,11.0,1.0,1.0,1.0
50.24,9.0,1.0,1.0,1.0
50.28,2.0,1.0,1.0,1.0
50.32,16.0,1.0,1.0,1.0
50.36,15.0,1.0,1.0,1.0
50.4,7.4944,1.0,1.0,1.0
50.44,10.0,1.0,1.0,1.0
50.48,22.4944,1.0,1.0,1.0
50.52,10.0,1.0,1.0,1.0
50.56,13.0,1.0,1.0,1.0
50.6,6.0,1.0,1.0,1.0
50.64,9.0,1.0,1.0,1.0
50.68,12.0,1.0,1.0,1.0
50.72,6.0,1.0,1.0,1.0
50.76,12.4944,1.0,1.0,1.0
50.8,7.0,1.0,1.0,1.0
50.84,8.0,1.0,1.0,1.0
50.88,18.0,1.0,1.0,1.0
50.92,7.0,1.0,1.0,1.0
50.96,4.0,1.0,1.0,1.0
51.0,9.0,1.0,1.0,1.0
51.04,12.0,1.0,1.0,1.0
51.08,4.0,1.0,1.0,1.0
51.12,14.0,1.0,1.0,1.0
51.16,5.0,1.0,1.0,1.0
51.2,0.0,1.0,1.0,1.0
51.24,8.4944,1.0,1.0,1.0
51.28,10.0,1.0,1.0,1.0
51.32,11.0,1.0,1.0,1.0
51.36,10.0,1.0,1.0,1.0
51.4,12.4944,1.0,1.0,1.0
51.44,12.0,1.0,1.0,1.0
51.48,9.0,1.0,1.0,1.0
51.52,4.4944,1.0,1.0,1.0
51.56,3.0,1.0,1.0,1.0
51.6,8.0,1.0,1.0,1.0
51.64,13.0,1.0,1.0,1.0
51.68,8.0,1.0,1.0,1.0
51.72,7.5056,1.0,1.0,1.0
51.76,4.0,1.0,1.0,1.0
51.8,5.9889,1.0,1.0,1.0
51.84,19.5056,1.0,1.0,1.0
51.88,7.0,1.0,1.0,1.0
51.92,9.0,1.0,1.0,1.0
51.96,18.0111,1.0,1.0,1.0
52.0,12.0,1.0,1.0,1.0