File: XRD:XRR/SCO/23002_SL(CO)L/23002_SL(CO)L_001_XRD.csv
#twotheta, yobs, ycal, bkg, diff
18.0,23.0,1.0,1.0,1.0
18.04,58.496,1.0,1.0,1.0
18.08,34.008,1.0,1.0,1.0
18.12,31.0,1.0,1.0,1.0
18.16,42.0,1.0,1.0,1.0
18.2,36.008,1.0,1.0,1.0
18.24,40.496,1.0,1.0,1.0
18.28,25.0,1.0,1.0,1.0
18.32,42.504,1.0,1.0,1.0
18.36,36.0,1.0,1.0,1.0
18.4,38.0,1.0,1.0,1.0
18.44,38.496,1.0,1.0,1.0
18.48,31.496,1.0,1.0,1.0
18.52,46.0,1.0,1.0,1.0
18.56,51.0,1.0,1.0,1.0
18.6,30.0,1.0,1.0,1.0
18.64,39.504,1.0,1.0,1.0
18.68,105.0,1.0,1.0,1.0
18.72,22.0,1.0,1.0,1.0
18.76,39.008,1.0,1.0,1.0
18.8,32.504,1.0,1.0,1.0
18.84,25.504,1.0,1.0,1.0
18.88,25.992,1.0,1.0,1.0
18.92,31.0,1.0,1.0,1.0
18.96,26.0,1.0,1.0,1.0
19.0,25.008,1.0,1.0,1.0
19.04,29.496,1.0,1.0,1.0
19.08,31.496,1.0,1.0,1.0
19.12,28.496,1.0,1.0,1.0
19.16,23.0,1.0,1.0,1.0
19.2,35.0,1.0,1.0,1.0
19.24,33.0,1.0,1.0,1.0
19.28,40.0,1.0,1.0,1.0
19.32,36.496,1.0,1.0,1.0
19.36,42.0,1.0,1.0,1.0
19.4,52.504,1.0,1.0,1.0
19.44,38.992,1.0,1.0,1.0
19.48,56.008,1.0,1.0,1.0
19.52,59.0,1.0,1.0,1.0
19.56,93.008,1.0,1.0,1.0
19.6,78.0,1.0,1.0,1.0
19.64,105.992,1.0,1.0,1.0
19.68,88.0,1.0,1.0,1.0
19.72,78.0,1.0,1.0,1.0
19.76,53.0159,1.0,1.0,1.0
19.8,42.0,1.0,1.0,1.0
19.84,51.008,1.0,1.0,1.0
19.88,47.504,1.0,1.0,1.0
19.92,21.0,1.0,1.0,1.0
19.96,46.992,1.0,1.0,1.0
20.0,54.992,1.0,1.0,1.0
20.04,60.496,1.0,1.0,1.0
20.08,74.0159,1.0,1.0,1.0
20.12,29.496,1.0,1.0,1.0
20.16,37.504,1.0,1.0,1.0
20.2,63.008,1.0,1.0,1.0
20.24,45.9841,1.0,1.0,1.0
20.28,65.496,1.0,1.0,1.0
20.32,71.0,1.0,1.0,1.0
20.36,79.504,1.0,1.0,1.0
20.4,77.0,1.0,1.0,1.0
20.44,105.0,1.0,1.0,1.0
20.48,93.504,1.0,1.0,1.0
20.52,88.496,1.0,1.0,1.0
20.56,107.008,1.0,1.0,1.0
20.6,112.496,1.0,1.0,1.0
20.64,98.4881,1.0,1.0,1.0
20.68,123.4801,1.0,1.0,1.0
20.72,145.992,1.0,1.0,1.0
20.76,89.0,1.0,1.0,1.0
20.8,69.504,1.0,1.0,1.0
20.84,69.496,1.0,1.0,1.0
20.88,48.504,1.0,1.0,1.0
20.92,38.0,1.0,1.0,1.0
20.96,50.496,1.0,1.0,1.0
21.0,61.008,1.0,1.0,1.0
21.04,42.008,1.0,1.0,1.0
21.08,37.504,1.0,1.0,1.0
21.12,43.0,1.0,1.0,1.0
21.16,40.0,1.0,1.0,1.0
21.2,64.008,1.0,1.0,1.0
21.24,94.496,1.0,1.0,1.0
21.28,87.008,1.0,1.0,1.0
21.32,121.504,1.0,1.0,1.0
21.36,112.992,1.0,1.0,1.0
21.4,158.504,1.0,1.0,1.0
21.44,220.5199,1.0,1.0,1.0
21.48,312.496,1.0,1.0,1.0
21.52,446.5119,1.0,1.0,1.0
21.56,490.008,1.0,1.0,1.0
21.6,540.0079,1.0,1.0,1.0
21.64,663.0,1.0,1.0,1.0
21.68,840.504,1.0,1.0,1.0
21.72,1090.496,1.0,1.0,1.0
21.76,1317.48,1.0,1.0,1.0
21.8,1641.43,1.0,1.0,1.0
21.84,1735.02,1.0,1.0,1.0
21.88,1683.52,1.0,1.0,1.0
21.92,1310.46,1.0,1.0,1.0
21.96,908.0,1.0,1.0,1.0
22.0,554.9602,1.0,1.0,1.0
22.04,302.5119,1.0,1.0,1.0
22.08,250.992,1.0,1.0,1.0
22.12,266.0319,1.0,1.0,1.0
22.16,314.0,1.0,1.0,1.0
22.2,244.496,1.0,1.0,1.0
22.24,174.992,1.0,1.0,1.0
22.28,135.008,1.0,1.0,1.0
22.32,146.5199,1.0,1.0,1.0
22.36,201.008,1.0,1.0,1.0
22.4,262.992,1.0,1.0,1.0
22.44,371.0239,1.0,1.0,1.0
22.48,395.5199,1.0,1.0,1.0
22.52,481.496,1.0,1.0,1.0
22.56,704.504,1.0,1.0,1.0
22.6,1004.0,1.0,1.0,1.0
22.64,1489.47,1.0,1.0,1.0
22.68,2016.05,1.0,1.0,1.0
22.72,2418.04,1.0,1.0,1.0
22.76,3041.53,1.0,1.0,1.0
22.8,3815.04,1.0,1.0,1.0
22.84,5010.01,1.0,1.0,1.0
22.88,6528.66,1.0,1.0,1.0
22.92,8042.52,1.0,1.0,1.0
22.96,8930.89,1.0,1.0,1.0
23.0,8776.92,1.0,1.0,1.0
23.04,7230.93,1.0,1.0,1.0
23.08,5323.93,1.0,1.0,1.0
23.12,3523.01,1.0,1.0,1.0
23.16,3085.02,1.0,1.0,1.0
23.2,4176.01,1.0,1.0,1.0
23.24,6604.04,1.0,1.0,1.0
23.28,9929.49,1.0,1.0,1.0
23.32,14633.6,1.0,1.0,1.0
23.36,25267.8,1.0,1.0,1.0
23.4,78700.3,1.0,1.0,1.0
23.44,2483149.75,1.0,1.0,1.0
23.48,11045147.0,1.0,1.0,1.0
23.52,2266129.5,1.0,1.0,1.0
23.56,61107.3,1.0,1.0,1.0
23.6,16153.7,1.0,1.0,1.0
23.64,7742.3,1.0,1.0,1.0
23.68,4374.41,1.0,1.0,1.0
23.72,2629.46,1.0,1.0,1.0
23.76,1578.97,1.0,1.0,1.0
23.8,1037.98,1.0,1.0,1.0
23.84,720.488,1.0,1.0,1.0
23.88,551.0079,1.0,1.0,1.0
23.92,379.0159,1.0,1.0,1.0
23.96,233.0,1.0,1.0,1.0
24.0,209.504,1.0,1.0,1.0
24.04,282.5279,1.0,1.0,1.0
24.08,368.0,1.0,1.0,1.0
24.12,422.008,1.0,1.0,1.0
24.16,475.992,1.0,1.0,1.0
24.2,420.5119,1.0,1.0,1.0
24.24,264.504,1.0,1.0,1.0
24.28,217.008,1.0,1.0,1.0
24.32,162.4881,1.0,1.0,1.0
24.36,143.496,1.0,1.0,1.0
24.4,122.496,1.0,1.0,1.0
24.44,114.0159,1.0,1.0,1.0
24.48,111.992,1.0,1.0,1.0
24.52,106.5119,1.0,1.0,1.0
24.56,68.0,1.0,1.0,1.0
24.6,216.0159,1.0,1.0,1.0
24.64,82.008,1.0,1.0,1.0
24.68,79.496,1.0,1.0,1.0
24.72,85.0,1.0,1.0,1.0
24.76,72.0,1.0,1.0,1.0
24.8,111.496,1.0,1.0,1.0
24.84,99.5119,1.0,1.0,1.0
24.88,85.9841,1.0,1.0,1.0
24.92,81.0,1.0,1.0,1.0
24.96,88.992,1.0,1.0,1.0
25.0,75.0,1.0,1.0,1.0
25.04,70.496,1.0,1.0,1.0
25.08,65.504,1.0,1.0,1.0
25.12,46.504,1.0,1.0,1.0
25.16,54.496,1.0,1.0,1.0
25.2,34.0,1.0,1.0,1.0
25.24,30.504,1.0,1.0,1.0
25.28,32.0,1.0,1.0,1.0
25.32,32.504,1.0,1.0,1.0
25.36,45.496,1.0,1.0,1.0
25.4,30.0,1.0,1.0,1.0
25.44,30.504,1.0,1.0,1.0
25.48,27.504,1.0,1.0,1.0
25.52,36.008,1.0,1.0,1.0
25.56,39.496,1.0,1.0,1.0
25.6,25.496,1.0,1.0,1.0
25.64,35.008,1.0,1.0,1.0
25.68,42.0,1.0,1.0,1.0
25.72,40.0,1.0,1.0,1.0
25.76,38.0,1.0,1.0,1.0
25.8,37.0,1.0,1.0,1.0
25.84,24.992,1.0,1.0,1.0
25.88,33.0,1.0,1.0,1.0
25.92,29.0,1.0,1.0,1.0
25.96,28.0,1.0,1.0,1.0
26.0,33.496,1.0,1.0,1.0
26.04,26.504,1.0,1.0,1.0
26.08,9.0,1.0,1.0,1.0
26.12,19.504,1.0,1.0,1.0
26.16,29.992,1.0,1.0,1.0
26.2,26.504,1.0,1.0,1.0
26.24,5.0,1.0,1.0,1.0
26.28,20.496,1.0,1.0,1.0
26.32,27.008,1.0,1.0,1.0
26.36,27.496,1.0,1.0,1.0
26.4,11.0,1.0,1.0,1.0
26.44,12.0,1.0,1.0,1.0
26.48,23.0,1.0,1.0,1.0
26.52,21.0,1.0,1.0,1.0
26.56,30.496,1.0,1.0,1.0
26.6,7.504,1.0,1.0,1.0
26.64,4.0,1.0,1.0,1.0
26.68,18.0,1.0,1.0,1.0
26.72,11.496,1.0,1.0,1.0
26.76,19.0,1.0,1.0,1.0
26.8,14.0,1.0,1.0,1.0
26.84,17.496,1.0,1.0,1.0
26.88,17.504,1.0,1.0,1.0
26.92,5.0,1.0,1.0,1.0
26.96,17.0,1.0,1.0,1.0
27.0,18.0,1.0,1.0,1.0
27.04,20.0,1.0,1.0,1.0
27.08,15.0,1.0,1.0,1.0
27.12,20.504,1.0,1.0,1.0
27.16,30.496,1.0,1.0,1.0
27.2,25.496,1.0,1.0,1.0
27.24,18.0,1.0,1.0,1.0
27.28,12.0,1.0,1.0,1.0
27.32,7.0,1.0,1.0,1.0
27.36,15.008,1.0,1.0,1.0
27.4,15.0,1.0,1.0,1.0
27.44,5.0,1.0,1.0,1.0
27.48,19.0,1.0,1.0,1.0
27.52,8.0,1.0,1.0,1.0
27.56,8.504,1.0,1.0,1.0
27.6,10.0,1.0,1.0,1.0
27.64,5.504,1.0,1.0,1.0
27.68,15.0,1.0,1.0,1.0
27.72,10.0,1.0,1.0,1.0
27.76,10.496,1.0,1.0,1.0
27.8,20.0,1.0,1.0,1.0
27.84,18.0,1.0,1.0,1.0
27.88,20.496,1.0,1.0,1.0
27.92,15.0,1.0,1.0,1.0
27.96,25.0,1.0,1.0,1.0
28.0,12.496,1.0,1.0,1.0