File: XRD:XRR/SCO/22156_(SL)CO_L/22156_(SL)C0_L_XRD_2-Theta_Omega.asc
*TYPE		=  Raw
*CLASS		=  ASCII CLASS
*SAMPLE		=
*COMMENT	=
*FNAME		=  22155_(SL)C0_L_XRD_2-Theta_Omega.asc
*DATE		=  27-Oct-22 16:51

*GROUP_COUNT	=  1
*GONIO		=  SmartLab(In-plane), 0.000000
*ATTACHMENT	=  Z-Phi Stage
*ASC		=  0, 0, 0.000000, 0.000000
*I_MONOCHRO	=  Ge(220)x2, 0.000000
*FILTER		=  None
*C_MONOCHRO	=  None, 0.000000
*SLIT_NAME	=  0, Incident slit
*SLIT_NAME	=  1, Receiving slit # 1
*SLIT_NAME	=  2, Receiving slit # 2
*COUNTER	=  D/teX Ultra 250, 0
*POS_FORMAT	=  0
*SCAN_AXIS	=  2Theta/Omega
*MEAS_MODE	=  Continuous Scanning
*TARGET		=  29
*XRAY_CHAR	=  K-ALPHA1
*WAVE_LENGTH1	=  1.54059
*WAVE_LENGTH2	=  1.54441
*THICKNESS	=  0, 0.000000
*MU		=  0, 0.000000
*SCAN_MODE	=  2Theta/Omega
*SPEED_DIM	=  sec./step
*XUNIT		=  deg.
*YUNIT		=  counts
*SCALE_MODE	=  1
*REP_COUNT	=  0
*SE_COUNT	=  0
*STD_MATERIAL	=  Unknown, Unknown, 0.000000, 0.000000, 0.000000, 0.000000, 0.000000, 0.000000
*LATT_CONS	=  0, Unknown, Unknown, 0.000000, 0.000000, 0.000000, 0.000000, 0.000000, 0.000000
*SEC_COUNT	=  1
*TSPEC_SIZE	=  0
*EXTRA_SIZE	=  0
*MEMO		=

*BEGIN
*GROUP		=  0
*START		=  42
*STOP		=  52
*STEP		=  0.01
*OFFSET		=  -0.039000
*SPEED		=  23.9588
*SLIT_SPEC	=  0, 0.400mm, 0.4, 0.000000
*SLIT_SPEC	=  1, 0.400mm, 0.4, 0.000000
*SLIT_SPEC	=  2, 0.400mm, 0.4, 0.000000
*KV		=  40
*MA		=  30
*LOW		=  0.000000
*HIGH		=  0.000000
*CTEMPER	=  0, 0.000000
*CTEMPER	=  1, 0.000000
*CTEMPER	=  2, 0.000000
*PAREX		=  0, 0.000000
*PAREX		=  1, 0.000000
*PAREX		=  2, 0.000000
*PAREX		=  3, 0.000000
*PAREX		=  4, 0.000000
*PAREX		=  5, 0.000000
*PAREX		=  6, 0.000000
*PAREX		=  7, 0.000000
*PAREX		=  8, 0.000000
*PAREX		=  9, 0.000000
*PAREX		=  10, 0.000000
*PAREX		=  11, 0.000000
*PAREX		=  12, 0.000000
*PAREX		=  13, 0.000000
*PAREX		=  14, 0.000000
*PAREX		=  15, 0.000000
*FULL_SCALE	=  483585
*INDEX		=  0, 0, 0
*COUNT		=  1001
4, 14, 5, 7
11, 2, 8, 7.49445
2.50555, 6, 6, 8.49445
12.5056, 0.000000, 11, 7
9, 7, 14, 1.49445
10.4944, 3.50555, 7.50555, 7
12, 9, 8, 7
7, 5, 13, 12
17, 9, 2, 10.9889
16.0111, 4, 13, 11
7, 5, 11, 14
16, 16, 10, 7
5, 10, 12, 12
8, 8, 0.000000, 14
6.98889, 15.0111, 16.4944, 7
16.5056, 4, 10, 6
7, 7, 0.000000, 13
6, 6, 0.000000, 8
9, 14, 9, 12
10, 13, 6, 13
8, 14.4944, 9.50555, 10
12.4944, 6, 13, 4.50555
7.49445, 9.50555, 6, 12
4, 10, 13, 9
7, 0.494446, 14.5056, 5.49445
2.50555, 7.49445, 5.50555, 7
10, 4, 0.000000, 3
6, 7, 7, 19
11.4944, 14, 12.5056, 17.9889
13.0111, 9, 8, 18
6, 6, 9, 16
13, 4.49445, 6.50555, 2.49445
8.50555, 11, 15, 2
10.4944, 10.5056, 11, 7
22, 14.4944, 9.50555, 0.000000
15, 14, 13, 4
9.49445, 8.50555, 15, 11
12, 13, 8.49445, 27.4944
17.0111, 8, 17.9889, 11.5056
13.5056, 26, 15, 8
21.4944, 22.5056, 13, 23.9778
32.0222, 21, 19, 24.4944
15.5056, 11.4944, 21.5056, 22.4944
24.5056, 27, 29.4944, 24
31.5056, 24.4833, 40.0111, 42.5056
22.4944, 17.5056, 22, 28
15, 21.4944, 24, 16.5056
23.9889, 12.0111, 21, 36.9889
30.0111, 31, 30, 27
23, 35, 27, 29
41, 46.9667, 33.5278, 13.5056
29.4944, 30.5056, 26.4944, 27.5056
42.4944, 12.5056, 22, 34
23, 17, 12, 22
22, 20.9889, 18.0111, 9
36, 16, 22, 17
20, 15, 16, 24.4944
12.4944, 24.0111, 31, 22
26, 27, 19, 34
10, 31, 62, 25
34, 26, 32.4944, 49.5056
33.4833, 23.5167, 45, 28
34, 44.4944, 30.4944, 30.5056
46, 40.5056, 32.9778, 38.5167
51.5056, 35.4944, 45.5056, 37.4944
40, 32.5056, 44.9889, 41.0111
55.4944, 50.5056, 61.9889, 73.5056
58.4944, 76.5056, 63.5056, 69.9889
57.0111, 86.4944, 78, 73
75.9889, 88.0111, 82.4722, 100.033
79.9778, 112.011, 125.483, 140.022
123.506, 148.472, 162.494, 193
159.528, 176.494, 190.506, 197.472
200.506, 228, 241.989, 267
245.517, 275.989, 336.978, 355.022
308.011, 367, 373.978, 416.967
461.033, 425.022, 471.011, 547.45
543.011, 533.472, 598.528, 540.989
553.494, 550.011, 517.483, 544.528
559.956, 559.517, 486.506, 540.022
536.494, 527.494, 528, 533.494
524.011, 589.494, 540.033, 536.472
521.989, 582.022, 560.494, 571.922
593.583, 637.989, 722.956, 675.55
767.45, 803, 913.461, 998.517
1054.46, 1114.08, 1179.92, 1300.03
1266.96, 1401.57, 1405.94, 1469
1470.02, 1511.47, 1562.45, 1638.53
1644.51, 1564.47, 1693.49, 1687
1818.53, 1848.52, 2058.97, 1967.44
2033.99, 2226.57, 2399.46, 2433.51
2568.92, 2669.03, 2728.44, 2836.49
3015.93, 3139.63, 3077.49, 3183.98
3238.44, 3471.52, 3472.46, 3460.47
3478.97, 3630.58, 3793.84, 3882.58
4096.41, 4238.04, 4531.58, 4480.37
4676.54, 4887.89, 4929.03, 4953.53
5047.99, 5377.52, 5186.1, 5334.81
5484.52, 5278.54, 5253.54, 5276.48
5423.41, 5431.08, 5398.9, 5408.02
5461, 5530.04, 5441.45, 5670.02
5614, 5626.91, 5694.09, 5471.12
5454.43, 5420.49, 5209.98, 5225.11
4882.47, 4884.52, 4782.07, 4701.97
4471.98, 4395.53, 4309.96, 4314.52
4204.58, 4146.52, 4276.61, 4310.76
4132.66, 4111.84, 4043.46, 4053.63
3905.53, 3822.02, 3685.53, 3574.54
3324.93, 3189.03, 2829.02, 2610.56
2385.98, 2168.06, 1951.91, 1769.63
1522.53, 1465.43, 1363.59, 1226.49
1246.01, 1254.01, 1178.99, 1188.94
1244.56, 1202.98, 1272.99, 1254.55
1212.47, 1180.01, 1088.01, 1150.97
1063.53, 1002.54, 952.967, 948.978
908.033, 894.989, 864.022, 969
1000.02, 947.461, 1092.98, 1135.53
1193.96, 1227.52, 1278.99, 1360.53
1356.97, 1443.02, 1468.52, 1409.91
1421.54, 1453.48, 1428.51, 1455.02
1483.94, 1554.06, 1669.96, 1744.52
1821.42, 1888.53, 2029.04, 2104.87
2224.04, 2231.49, 2400.96, 2522.48
2585.53, 2625.49, 2590.1, 2541.91
2528.58, 2573.01, 2405.45, 2405.44
2140.61, 1983.46, 1936.56, 1789.92
1596.65, 1445.99, 1303.03, 1182.47
1057.06, 940.483, 848.472, 777.561
672.989, 638.472, 664.044, 665.439
665.528, 686.506, 706.483, 713
700.528, 668.506, 681, 686
725.506, 697.967, 676.539, 673
612.011, 625.472, 612.506, 588
586.494, 585.506, 572.967, 586.033
539, 599.517, 587.967, 604.022
675.011, 643.483, 674.461, 673.044
653.978, 708, 681.506, 706.517
680.989, 756.978, 751.011, 780.989
785.033, 831.45, 853.989, 834.55
848.956, 868.539, 908, 982.922
1067.01, 1088.02, 1201, 1241.47
1239.48, 1285.98, 1325.55, 1393.01
1509.43, 1534.48, 1679.49, 1678.04
1894.45, 2068.94, 2198.97, 2432.52
2632.44, 2843.56, 3265.41, 3556.54
4077.9, 4550.43, 5173.86, 5775.06
6662.9, 7858.29, 9363.33, 11460.8
14113.2, 17996.3, 23730.4, 32203.8
44004.7, 64562.2, 98928, 160091
300892, 1144438.9, 4742827, 7818812
8725462, 4091711.3, 1614303.1, 1194980.6
540877, 273057, 187364, 260249
120145, 31985.6, 16226.8, 11268.3
8572.66, 6626.24, 5514.08, 4663.02
3937.54, 3299.1, 2813.07, 2577.97
2331.62, 2086.96, 1783.49, 1720.56
1451.01, 1407.01, 1219.04, 1197.02
1134.98, 990.022, 894.033, 840.45
727.078, 725.461, 691.472, 583.067
578.517, 530.494, 521.439, 496.55
488, 474.506, 398.494, 399
363.033, 407.483, 372.517, 322.461
332.517, 365.506, 312.517, 302.472
295.022, 283.978, 261.517, 259.494
242, 246.528, 205.472, 236.506
219.011, 188, 206.967, 185.528
218.506, 226.494, 213, 191
186.517, 178.483, 218.022, 178.483
206, 176.506, 173.011, 167.989
187.506, 169.472, 177.022, 142.506
138.011, 134.483, 125, 122
108.011, 106.989, 94.5167, 88.9889
96.5056, 48, 60.5056, 42.4944
43.5056, 55, 41.4944, 37
48.5056, 40.9889, 47.0111, 18
27, 28, 23, 32.4944
23.5056, 34, 32, 30.4944
36.5056, 39, 32.4833, 39.5167
24, 23, 20, 34.4944
26.5056, 19, 34.4944, 25.9889
17.5167, 28.4944, 21, 32.5056
31.4944, 16.5056, 13, 23
36.9889, 22.4944, 20.0111, 28
15.5056, 21.9889, 20.5056, 13.5056
19, 27, 18.9889, 23.5056
24.5056, 19, 23.9889, 34.0111
17, 17, 14, 31.4944
25.5056, 23, 13.4944, 22.5056
15.4944, 17, 17, 33.5056
19.9889, 38.0111, 19.9889, 28.0111
20.4944, 22.5056, 18.4944, 24
25, 25.5056, 31, 10
19, 6, 19, 21
14.4944, 22.5056, 14, 16
20.4944, 24.5056, 11, 12
11, 12.9889, 9.01111, 8
13, 5, 13, 8
9.49445, 13.5056, 10, 11
23.4944, 13.5056, 10.4944, 7
15, 22.5056, 13, 14
13.4944, 14.5056, 15, 5
18.4944, 11.5056, 10, 8
4, 11, 18, 14.4944
14.5056, 4, 8, 15.4944
8, 15, 6.50555, 10.4944
15.5056, 19, 10.4944, 7.50555
5, 5, 5, 8
21, 9, 5, 14
6, 7, 12, 2
14, 6, 16, 6.98889
10.0111, 8, 25, 17.4944
19, 7.50555, 14, 12
9, 19, 6, 10
8, 2, 8, 13
10, 8, 9, 15
18, 7.98889, 9.50555, 24.5056
10.4944, 25.5056, 8.49445, 12.5056
7, 10.9889, 8.50555, 13.5056
6, 19.4944, 16.5056, 16
16, 19, 17.9889, 6.01111
15, 12, 17, 13
7.49445, 10.5056, 12, 12
12.4944, 20.5056, 13.4944, 11.4944
22.0111, 3, 13, 14.4944
15.5056, 13, 15, 9
14, 8, 11.9889, 16.0111
13, 4, 7, 8
13, 15, 23, 14
10, 17, 11.9889, 3.01111
20, 6, 6, 16
10, 2, 13, 9
7.49445, 6.50555, 8.49445, 9.50555
12, 11, 10.9889, 4.01111
7, 9, 5.98889, 17.0111
15, 4, 9, 5
2, 10, 9, 16.4944
10.5056, 3, 3, 16
3, 2, 11.4944, 6
8.50555, 15, 7, 13.4944
7.50555, 6, 7, 8
12, 1, 5.49445, 6.50555
7, 11, 4.49445, 5.50555
9, 6, 4, 14
9, 12, 36, 11
2, 5, 6, 8
6.49445, 6.50555, 10, 0.000000
6, 4, 8, 7
8.49445, 4.50555, 9, 1
3, 6, 3, 4
5, 6.49445, 10, 10.5056
4
*END

*EOF