File: XRD:XRR/SCO/22156_(SL)CO_L/22156_(SL)C0_L_XRD.csv
#twotheta, yobs, ycal, bkg, diff
42.0,4.0,1.0,1.0,1.0
42.04,11.0,1.0,1.0,1.0
42.08,2.5056,1.0,1.0,1.0
42.12,12.5056,1.0,1.0,1.0
42.16,9.0,1.0,1.0,1.0
42.2,10.4944,1.0,1.0,1.0
42.24,12.0,1.0,1.0,1.0
42.28,7.0,1.0,1.0,1.0
42.32,17.0,1.0,1.0,1.0
42.36,16.0111,1.0,1.0,1.0
42.4,7.0,1.0,1.0,1.0
42.44,16.0,1.0,1.0,1.0
42.48,5.0,1.0,1.0,1.0
42.52,8.0,1.0,1.0,1.0
42.56,6.9889,1.0,1.0,1.0
42.6,16.5056,1.0,1.0,1.0
42.64,7.0,1.0,1.0,1.0
42.68,6.0,1.0,1.0,1.0
42.72,9.0,1.0,1.0,1.0
42.76,10.0,1.0,1.0,1.0
42.8,8.0,1.0,1.0,1.0
42.84,12.4944,1.0,1.0,1.0
42.88,7.4944,1.0,1.0,1.0
42.92,4.0,1.0,1.0,1.0
42.96,7.0,1.0,1.0,1.0
43.0,2.5056,1.0,1.0,1.0
43.04,10.0,1.0,1.0,1.0
43.08,6.0,1.0,1.0,1.0
43.12,11.4944,1.0,1.0,1.0
43.16,13.0111,1.0,1.0,1.0
43.2,6.0,1.0,1.0,1.0
43.24,13.0,1.0,1.0,1.0
43.28,8.5056,1.0,1.0,1.0
43.32,10.4944,1.0,1.0,1.0
43.36,22.0,1.0,1.0,1.0
43.4,15.0,1.0,1.0,1.0
43.44,9.4944,1.0,1.0,1.0
43.48,12.0,1.0,1.0,1.0
43.52,17.0111,1.0,1.0,1.0
43.56,13.5056,1.0,1.0,1.0
43.6,21.4944,1.0,1.0,1.0
43.64,32.0222,1.0,1.0,1.0
43.68,15.5056,1.0,1.0,1.0
43.72,24.5056,1.0,1.0,1.0
43.76,31.5056,1.0,1.0,1.0
43.8,22.4944,1.0,1.0,1.0
43.84,15.0,1.0,1.0,1.0
43.88,23.9889,1.0,1.0,1.0
43.92,30.0111,1.0,1.0,1.0
43.96,23.0,1.0,1.0,1.0
44.0,41.0,1.0,1.0,1.0
44.04,29.4944,1.0,1.0,1.0
44.08,42.4944,1.0,1.0,1.0
44.12,23.0,1.0,1.0,1.0
44.16,22.0,1.0,1.0,1.0
44.2,36.0,1.0,1.0,1.0
44.24,20.0,1.0,1.0,1.0
44.28,12.4944,1.0,1.0,1.0
44.32,26.0,1.0,1.0,1.0
44.36,10.0,1.0,1.0,1.0
44.4,34.0,1.0,1.0,1.0
44.44,33.4833,1.0,1.0,1.0
44.48,34.0,1.0,1.0,1.0
44.52,46.0,1.0,1.0,1.0
44.56,51.5056,1.0,1.0,1.0
44.6,40.0,1.0,1.0,1.0
44.64,55.4944,1.0,1.0,1.0
44.68,58.4944,1.0,1.0,1.0
44.72,57.0111,1.0,1.0,1.0
44.76,75.9889,1.0,1.0,1.0
44.8,79.9778,1.0,1.0,1.0
44.84,123.5056,1.0,1.0,1.0
44.88,159.5278,1.0,1.0,1.0
44.92,200.5056,1.0,1.0,1.0
44.96,245.5167,1.0,1.0,1.0
45.0,308.0111,1.0,1.0,1.0
45.04,461.0333,1.0,1.0,1.0
45.08,543.0111,1.0,1.0,1.0
45.12,553.4944,1.0,1.0,1.0
45.16,559.9556,1.0,1.0,1.0
45.2,536.4944,1.0,1.0,1.0
45.24,524.0111,1.0,1.0,1.0
45.28,521.9889,1.0,1.0,1.0
45.32,593.5833,1.0,1.0,1.0
45.36,767.45,1.0,1.0,1.0
45.4,1054.46,1.0,1.0,1.0
45.44,1266.96,1.0,1.0,1.0
45.48,1470.02,1.0,1.0,1.0
45.52,1644.51,1.0,1.0,1.0
45.56,1818.53,1.0,1.0,1.0
45.6,2033.99,1.0,1.0,1.0
45.64,2568.92,1.0,1.0,1.0
45.68,3015.93,1.0,1.0,1.0
45.72,3238.439,1.0,1.0,1.0
45.76,3478.97,1.0,1.0,1.0
45.8,4096.41,1.0,1.0,1.0
45.84,4676.54,1.0,1.0,1.0
45.88,5047.99,1.0,1.0,1.0
45.92,5484.52,1.0,1.0,1.0
45.96,5423.41,1.0,1.0,1.0
46.0,5461.0,1.0,1.0,1.0
46.04,5614.0,1.0,1.0,1.0
46.08,5454.43,1.0,1.0,1.0
46.12,4882.47,1.0,1.0,1.0
46.16,4471.98,1.0,1.0,1.0
46.2,4204.58,1.0,1.0,1.0
46.24,4132.66,1.0,1.0,1.0
46.28,3905.53,1.0,1.0,1.0
46.32,3324.93,1.0,1.0,1.0
46.36,2385.98,1.0,1.0,1.0
46.4,1522.53,1.0,1.0,1.0
46.44,1246.01,1.0,1.0,1.0
46.48,1244.56,1.0,1.0,1.0
46.52,1212.47,1.0,1.0,1.0
46.56,1063.53,1.0,1.0,1.0
46.6,908.0333,1.0,1.0,1.0
46.64,1000.02,1.0,1.0,1.0
46.68,1193.96,1.0,1.0,1.0
46.72,1356.97,1.0,1.0,1.0
46.76,1421.54,1.0,1.0,1.0
46.8,1483.94,1.0,1.0,1.0
46.84,1821.42,1.0,1.0,1.0
46.88,2224.04,1.0,1.0,1.0
46.92,2585.53,1.0,1.0,1.0
46.96,2528.58,1.0,1.0,1.0
47.0,2140.61,1.0,1.0,1.0
47.04,1596.65,1.0,1.0,1.0
47.08,1057.06,1.0,1.0,1.0
47.12,672.9889,1.0,1.0,1.0
47.16,665.5278,1.0,1.0,1.0
47.2,700.5278,1.0,1.0,1.0
47.24,725.5056,1.0,1.0,1.0
47.28,612.0111,1.0,1.0,1.0
47.32,586.4944,1.0,1.0,1.0
47.36,539.0,1.0,1.0,1.0
47.4,675.0111,1.0,1.0,1.0
47.44,653.9778,1.0,1.0,1.0
47.48,680.9889,1.0,1.0,1.0
47.52,785.0333,1.0,1.0,1.0
47.56,848.9556,1.0,1.0,1.0
47.6,1067.01,1.0,1.0,1.0
47.64,1239.48,1.0,1.0,1.0
47.68,1509.43,1.0,1.0,1.0
47.72,1894.45,1.0,1.0,1.0
47.76,2632.439,1.0,1.0,1.0
47.8,4077.9,1.0,1.0,1.0
47.84,6662.9,1.0,1.0,1.0
47.88,14113.2,1.0,1.0,1.0
47.92,44004.7,1.0,1.0,1.0
47.96,300892,1.0,1.0,1.0
48.0,8725462.0,1.0,1.0,1.0
48.04,540877.125,1.0,1.0,1.0
48.08,120145,1.0,1.0,1.0
48.12,8572.66,1.0,1.0,1.0
48.16,3937.54,1.0,1.0,1.0
48.2,2331.62,1.0,1.0,1.0
48.24,1451.01,1.0,1.0,1.0
48.28,1134.98,1.0,1.0,1.0
48.32,727.0778,1.0,1.0,1.0
48.36,578.5167,1.0,1.0,1.0
48.4,488.0,1.0,1.0,1.0
48.44,363.0333,1.0,1.0,1.0
48.48,332.5167,1.0,1.0,1.0
48.52,295.0222,1.0,1.0,1.0
48.56,242.0,1.0,1.0,1.0
48.6,219.0111,1.0,1.0,1.0
48.64,218.5056,1.0,1.0,1.0
48.68,186.5167,1.0,1.0,1.0
48.72,206.0,1.0,1.0,1.0
48.76,187.5056,1.0,1.0,1.0
48.8,138.0111,1.0,1.0,1.0
48.84,108.0111,1.0,1.0,1.0
48.88,96.5056,1.0,1.0,1.0
48.92,43.5056,1.0,1.0,1.0
48.96,48.5056,1.0,1.0,1.0
49.0,27.0,1.0,1.0,1.0
49.04,23.5056,1.0,1.0,1.0
49.08,36.5056,1.0,1.0,1.0
49.12,24.0,1.0,1.0,1.0
49.16,26.5056,1.0,1.0,1.0
49.2,17.5167,1.0,1.0,1.0
49.24,31.4944,1.0,1.0,1.0
49.28,36.9889,1.0,1.0,1.0
49.32,15.5056,1.0,1.0,1.0
49.36,19.0,1.0,1.0,1.0
49.4,24.5056,1.0,1.0,1.0
49.44,17.0,1.0,1.0,1.0
49.48,25.5056,1.0,1.0,1.0
49.52,15.4944,1.0,1.0,1.0
49.56,19.9889,1.0,1.0,1.0
49.6,20.4944,1.0,1.0,1.0
49.64,25.0,1.0,1.0,1.0
49.68,19.0,1.0,1.0,1.0
49.72,14.4944,1.0,1.0,1.0
49.76,20.4944,1.0,1.0,1.0
49.8,11.0,1.0,1.0,1.0
49.84,13.0,1.0,1.0,1.0
49.88,9.4944,1.0,1.0,1.0
49.92,23.4944,1.0,1.0,1.0
49.96,15.0,1.0,1.0,1.0
50.0,13.4944,1.0,1.0,1.0
50.04,18.4944,1.0,1.0,1.0
50.08,4.0,1.0,1.0,1.0
50.12,14.5056,1.0,1.0,1.0
50.16,8.0,1.0,1.0,1.0
50.2,15.5056,1.0,1.0,1.0
50.24,5.0,1.0,1.0,1.0
50.28,21.0,1.0,1.0,1.0
50.32,6.0,1.0,1.0,1.0
50.36,14.0,1.0,1.0,1.0
50.4,10.0111,1.0,1.0,1.0
50.44,19.0,1.0,1.0,1.0
50.48,9.0,1.0,1.0,1.0
50.52,8.0,1.0,1.0,1.0
50.56,10.0,1.0,1.0,1.0
50.6,18.0,1.0,1.0,1.0
50.64,10.4944,1.0,1.0,1.0
50.68,7.0,1.0,1.0,1.0
50.72,6.0,1.0,1.0,1.0
50.76,16.0,1.0,1.0,1.0
50.8,15.0,1.0,1.0,1.0
50.84,7.4944,1.0,1.0,1.0
50.88,12.4944,1.0,1.0,1.0
50.92,22.0111,1.0,1.0,1.0
50.96,15.5056,1.0,1.0,1.0
51.0,14.0,1.0,1.0,1.0
51.04,13.0,1.0,1.0,1.0
51.08,13.0,1.0,1.0,1.0
51.12,10.0,1.0,1.0,1.0
51.16,20.0,1.0,1.0,1.0
51.2,10.0,1.0,1.0,1.0
51.24,7.4944,1.0,1.0,1.0
51.28,12.0,1.0,1.0,1.0
51.32,7.0,1.0,1.0,1.0
51.36,15.0,1.0,1.0,1.0
51.4,2.0,1.0,1.0,1.0
51.44,10.5056,1.0,1.0,1.0
51.48,3.0,1.0,1.0,1.0
51.52,8.5056,1.0,1.0,1.0
51.56,7.5056,1.0,1.0,1.0
51.6,12.0,1.0,1.0,1.0
51.64,7.0,1.0,1.0,1.0
51.68,9.0,1.0,1.0,1.0
51.72,9.0,1.0,1.0,1.0
51.76,2.0,1.0,1.0,1.0
51.8,6.4944,1.0,1.0,1.0
51.84,6.0,1.0,1.0,1.0
51.88,8.4944,1.0,1.0,1.0
51.92,3.0,1.0,1.0,1.0
51.96,5.0,1.0,1.0,1.0
52.0,4.0,1.0,1.0,1.0