File: XRD:XRR/SCO/22154_SCO(CL)/22154_SCO(CL)_XRD.csv
#twotheta, yobs, ycal, bkg, diff
42.0,28.5056,1.0,1.0,1.0
42.05,12.4944,1.0,1.0,1.0
42.1,8.0,1.0,1.0,1.0
42.15,13.5056,1.0,1.0,1.0
42.2,15.0,1.0,1.0,1.0
42.25,15.5056,1.0,1.0,1.0
42.3,22.0,1.0,1.0,1.0
42.35,13.4944,1.0,1.0,1.0
42.4,25.9889,1.0,1.0,1.0
42.45,16.5056,1.0,1.0,1.0
42.5,22.0,1.0,1.0,1.0
42.55,22.0,1.0,1.0,1.0
42.6,51.9889,1.0,1.0,1.0
42.65,28.5167,1.0,1.0,1.0
42.7,30.0,1.0,1.0,1.0
42.75,17.0,1.0,1.0,1.0
42.8,27.0,1.0,1.0,1.0
42.85,32.9889,1.0,1.0,1.0
42.9,32.0,1.0,1.0,1.0
42.95,25.0,1.0,1.0,1.0
43.0,34.0,1.0,1.0,1.0
43.05,34.9889,1.0,1.0,1.0
43.1,37.0,1.0,1.0,1.0
43.15,30.0,1.0,1.0,1.0
43.2,21.0,1.0,1.0,1.0
43.25,21.0,1.0,1.0,1.0
43.3,35.0,1.0,1.0,1.0
43.35,31.0,1.0,1.0,1.0
43.4,36.0,1.0,1.0,1.0
43.45,30.4944,1.0,1.0,1.0
43.5,32.0,1.0,1.0,1.0
43.55,26.4944,1.0,1.0,1.0
43.6,31.0,1.0,1.0,1.0
43.65,38.0,1.0,1.0,1.0
43.7,24.5056,1.0,1.0,1.0
43.75,18.0,1.0,1.0,1.0
43.8,26.4944,1.0,1.0,1.0
43.85,41.4944,1.0,1.0,1.0
43.9,35.5056,1.0,1.0,1.0
43.95,30.0,1.0,1.0,1.0
44.0,26.5056,1.0,1.0,1.0
44.05,34.4944,1.0,1.0,1.0
44.1,24.0,1.0,1.0,1.0
44.15,42.5056,1.0,1.0,1.0
44.2,25.4944,1.0,1.0,1.0
44.25,44.5056,1.0,1.0,1.0
44.3,58.0,1.0,1.0,1.0
44.35,45.5056,1.0,1.0,1.0
44.4,52.5167,1.0,1.0,1.0
44.45,61.0,1.0,1.0,1.0
44.5,83.4833,1.0,1.0,1.0
44.55,96.4944,1.0,1.0,1.0
44.6,97.4944,1.0,1.0,1.0
44.65,146.5056,1.0,1.0,1.0
44.7,146.9889,1.0,1.0,1.0
44.75,180.4944,1.0,1.0,1.0
44.8,185.4833,1.0,1.0,1.0
44.85,205.0222,1.0,1.0,1.0
44.9,271.0111,1.0,1.0,1.0
44.95,285.4722,1.0,1.0,1.0
45.0,313.4722,1.0,1.0,1.0
45.05,398.9667,1.0,1.0,1.0
45.1,415.0111,1.0,1.0,1.0
45.15,486.5056,1.0,1.0,1.0
45.2,556.4944,1.0,1.0,1.0
45.25,560.9889,1.0,1.0,1.0
45.3,647.5278,1.0,1.0,1.0
45.35,702.4833,1.0,1.0,1.0
45.4,710.9778,1.0,1.0,1.0
45.45,877.0111,1.0,1.0,1.0
45.5,905.0778,1.0,1.0,1.0
45.55,974.5167,1.0,1.0,1.0
45.6,1088.44,1.0,1.0,1.0
45.65,1101.55,1.0,1.0,1.0
45.7,1278.45,1.0,1.0,1.0
45.75,1334.56,1.0,1.0,1.0
45.8,1500.98,1.0,1.0,1.0
45.85,1574.45,1.0,1.0,1.0
45.9,1821.0,1.0,1.0,1.0
45.95,2098.0,1.0,1.0,1.0
46.0,2368.51,1.0,1.0,1.0
46.05,2375.06,1.0,1.0,1.0
46.1,2517.52,1.0,1.0,1.0
46.15,2911.94,1.0,1.0,1.0
46.2,3212.99,1.0,1.0,1.0
46.25,3620.58,1.0,1.0,1.0
46.3,3931.51,1.0,1.0,1.0
46.35,4518.89,1.0,1.0,1.0
46.4,4857.99,1.0,1.0,1.0
46.45,5041.97,1.0,1.0,1.0
46.5,4976.55,1.0,1.0,1.0
46.55,4774.59,1.0,1.0,1.0
46.6,4350.02,1.0,1.0,1.0
46.65,4020.53,1.0,1.0,1.0
46.7,3449.43,1.0,1.0,1.0
46.75,2932.49,1.0,1.0,1.0
46.8,2507.51,1.0,1.0,1.0
46.85,2035.58,1.0,1.0,1.0
46.9,1703.53,1.0,1.0,1.0
46.95,1365.54,1.0,1.0,1.0
47.0,1160.55,1.0,1.0,1.0
47.05,1002.0,1.0,1.0,1.0
47.1,976.0111,1.0,1.0,1.0
47.15,935.5056,1.0,1.0,1.0
47.2,1041.46,1.0,1.0,1.0
47.25,1082.98,1.0,1.0,1.0
47.3,1251.0,1.0,1.0,1.0
47.35,1424.47,1.0,1.0,1.0
47.4,1570.0,1.0,1.0,1.0
47.45,1837.45,1.0,1.0,1.0
47.5,2138.49,1.0,1.0,1.0
47.55,2600.49,1.0,1.0,1.0
47.6,3003.93,1.0,1.0,1.0
47.65,3883.49,1.0,1.0,1.0
47.7,5460.49,1.0,1.0,1.0
47.75,8495.61,1.0,1.0,1.0
47.8,15209.2,1.0,1.0,1.0
47.85,38121.9,1.0,1.0,1.0
47.9,143719,1.0,1.0,1.0
47.95,1688141.5,1.0,1.0,1.0
48.0,30049754.0,1.0,1.0,1.0
48.05,384488,1.0,1.0,1.0
48.1,58643.5,1.0,1.0,1.0
48.15,18885.8,1.0,1.0,1.0
48.2,8897.08,1.0,1.0,1.0
48.25,4550.01,1.0,1.0,1.0
48.3,2710.09,1.0,1.0,1.0
48.35,1814.55,1.0,1.0,1.0
48.4,1176.53,1.0,1.0,1.0
48.45,833.5389,1.0,1.0,1.0
48.5,599.5167,1.0,1.0,1.0
48.55,429.5167,1.0,1.0,1.0
48.6,377.4833,1.0,1.0,1.0
48.65,312.5278,1.0,1.0,1.0
48.7,233.9889,1.0,1.0,1.0
48.75,207.9889,1.0,1.0,1.0
48.8,205.9889,1.0,1.0,1.0
48.85,155.0,1.0,1.0,1.0
48.9,128.0,1.0,1.0,1.0
48.95,103.5056,1.0,1.0,1.0
49.0,82.4944,1.0,1.0,1.0
49.05,91.0,1.0,1.0,1.0
49.1,84.5056,1.0,1.0,1.0
49.15,57.5056,1.0,1.0,1.0
49.2,76.9889,1.0,1.0,1.0
49.25,45.4944,1.0,1.0,1.0
49.3,45.4944,1.0,1.0,1.0
49.35,39.0111,1.0,1.0,1.0
49.4,52.5056,1.0,1.0,1.0
49.45,57.0,1.0,1.0,1.0
49.5,43.4944,1.0,1.0,1.0
49.55,37.5056,1.0,1.0,1.0
49.6,37.0111,1.0,1.0,1.0
49.65,35.5056,1.0,1.0,1.0
49.7,26.0,1.0,1.0,1.0
49.75,40.5056,1.0,1.0,1.0
49.8,31.9889,1.0,1.0,1.0
49.85,25.5056,1.0,1.0,1.0
49.9,38.4944,1.0,1.0,1.0
49.95,35.5056,1.0,1.0,1.0
50.0,36.4944,1.0,1.0,1.0
50.05,26.0,1.0,1.0,1.0
50.1,30.5056,1.0,1.0,1.0
50.15,28.9889,1.0,1.0,1.0
50.2,17.5056,1.0,1.0,1.0
50.25,20.4944,1.0,1.0,1.0
50.3,35.0,1.0,1.0,1.0
50.35,24.0,1.0,1.0,1.0
50.4,35.0,1.0,1.0,1.0
50.45,24.5056,1.0,1.0,1.0
50.5,20.4944,1.0,1.0,1.0
50.55,24.0,1.0,1.0,1.0
50.6,24.5056,1.0,1.0,1.0
50.65,20.0,1.0,1.0,1.0
50.7,33.5056,1.0,1.0,1.0
50.75,25.0,1.0,1.0,1.0
50.8,66.5056,1.0,1.0,1.0
50.85,27.0,1.0,1.0,1.0
50.9,30.0,1.0,1.0,1.0
50.95,17.0,1.0,1.0,1.0
51.0,19.4944,1.0,1.0,1.0
51.05,19.0,1.0,1.0,1.0
51.1,26.5056,1.0,1.0,1.0
51.15,19.9889,1.0,1.0,1.0
51.2,22.0,1.0,1.0,1.0
51.25,27.0,1.0,1.0,1.0
51.3,17.5056,1.0,1.0,1.0
51.35,16.5056,1.0,1.0,1.0
51.4,22.0,1.0,1.0,1.0
51.45,19.4944,1.0,1.0,1.0
51.5,21.4944,1.0,1.0,1.0
51.55,38.4944,1.0,1.0,1.0
51.6,21.0,1.0,1.0,1.0
51.65,19.0,1.0,1.0,1.0
51.7,24.0,1.0,1.0,1.0
51.75,28.4944,1.0,1.0,1.0
51.8,23.4944,1.0,1.0,1.0
51.85,15.0,1.0,1.0,1.0
51.9,21.0,1.0,1.0,1.0
51.95,30.0,1.0,1.0,1.0
52.0,16.0,1.0,1.0,1.0
0.44,1589889.0,1.0,1.0,1.0
0.49,1688963.0,1.0,1.0,1.0
0.54,2041863.5,1.0,1.0,1.0
0.59,1711478.125,1.0,1.0,1.0
0.64,984384,1.0,1.0,1.0
0.69,512235,1.0,1.0,1.0
0.74,372129,1.0,1.0,1.0
0.79,153997,1.0,1.0,1.0
0.84,69982.0,1.0,1.0,1.0
0.89,90728,1.0,1.0,1.0
0.94,89104.5,1.0,1.0,1.0
0.99,49721,1.0,1.0,1.0
1.04,17464,1.0,1.0,1.0
1.09,13864.5,1.0,1.0,1.0
1.14,23580.498,1.0,1.0,1.0
1.19,25167.0,1.0,1.0,1.0
1.24,15856.5,1.0,1.0,1.0
1.29,5967,1.0,1.0,1.0
1.34,2755,1.0,1.0,1.0
1.39,4855.998,1.0,1.0,1.0
1.44,6963,1.0,1.0,1.0
1.49,6361.001,1.0,1.0,1.0
1.54,3741.5,1.0,1.0,1.0
1.59,1484.5,1.0,1.0,1.0
1.64,838.0001,1.0,1.0,1.0
1.69,1270,1.0,1.0,1.0
1.74,1785,1.0,1.0,1.0
1.79,1780.5,1.0,1.0,1.0
1.84,1250,1.0,1.0,1.0
1.89,754.0005,1.0,1.0,1.0
1.94,407.4998,1.0,1.0,1.0
1.99,402.9995,1.0,1.0,1.0
2.04,505.9999,1.0,1.0,1.0
2.09,553.0001,1.0,1.0,1.0
2.14,625.9999,1.0,1.0,1.0
2.19,588.0003,1.0,1.0,1.0
2.24,449.5003,1.0,1.0,1.0
2.29,340.0,1.0,1.0,1.0
2.34,287.5001,1.0,1.0,1.0
2.39,370.0,1.0,1.0,1.0
2.44,400.0,1.0,1.0,1.0
2.49,479.5002,1.0,1.0,1.0
2.54,494.0,1.0,1.0,1.0
2.59,404.0,1.0,1.0,1.0
2.64,325.4999,1.0,1.0,1.0
2.69,262.9998,1.0,1.0,1.0
2.74,309.0,1.0,1.0,1.0
2.79,387.4999,1.0,1.0,1.0
2.84,468.4996,1.0,1.0,1.0
2.89,402.4996,1.0,1.0,1.0
2.94,361.5002,1.0,1.0,1.0
2.99,232.4999,1.0,1.0,1.0
3.04,256.0004,1.0,1.0,1.0
3.09,327.4997,1.0,1.0,1.0
3.14,344.5001,1.0,1.0,1.0
3.19,328.0002,1.0,1.0,1.0
3.24,297.9999,1.0,1.0,1.0
3.29,222.5002,1.0,1.0,1.0
3.34,230.0002,1.0,1.0,1.0
3.39,270.0,1.0,1.0,1.0
3.44,267.9998,1.0,1.0,1.0
3.49,238.5001,1.0,1.0,1.0
3.54,223.4997,1.0,1.0,1.0
3.59,223.9997,1.0,1.0,1.0
3.64,253.4999,1.0,1.0,1.0
3.69,211.0003,1.0,1.0,1.0
3.74,194.0,1.0,1.0,1.0
3.79,219.0,1.0,1.0,1.0
3.84,252.0001,1.0,1.0,1.0
3.89,248.5001,1.0,1.0,1.0
3.94,226.4998,1.0,1.0,1.0
3.99,229.9998,1.0,1.0,1.0
4.04,214.4999,1.0,1.0,1.0
4.09,237.9999,1.0,1.0,1.0
4.14,225.0,1.0,1.0,1.0
4.19,232.4999,1.0,1.0,1.0
4.24,240.0,1.0,1.0,1.0
4.29,209.0001,1.0,1.0,1.0
4.34,210.9998,1.0,1.0,1.0
4.39,217.9998,1.0,1.0,1.0
4.44,203.9998,1.0,1.0,1.0
4.49,185.9999,1.0,1.0,1.0
4.5,215.0,1.0,1.0,1.0